time (s)	coil I (A)	last det (V)	int current (uC)
9855.032804	1.243520	0.180770	569.532410
9855.033713	0.679969	0.180770	1187.624756
9855.034606	0.093904	0.180770	1271.480835
9855.035571	0.091124	0.180770	1359.415771
9855.036483	0.091095	0.180770	1442.494385
9855.037380	0.091150	0.180770	1524.255859
9855.038316	0.091219	0.180770	1609.637329
9855.039206	0.091223	0.180770	1690.825928
9855.040108	0.091165	0.180770	1773.056396
9855.040995	0.091198	0.180770	1853.948608
9855.041929	0.091260	0.180770	1939.185181
9855.042832	0.091165	0.180770	2021.506714
9856.085469	1.226162	0.203570	543.189880
9856.086403	0.659194	0.203570	1158.877319
9856.087303	0.093501	0.203570	1243.028198
9856.088235	0.091282	0.203570	1328.102783
9856.089139	0.091227	0.203570	1410.571777
9856.090045	0.091176	0.203570	1493.176758
9856.090931	0.091227	0.203570	1574.003662
9856.091882	0.091285	0.203570	1660.816040
9856.092789	0.091205	0.203570	1743.538818
9856.093682	0.091223	0.203570	1825.001099
9856.094603	0.091205	0.203570	1909.000732
9856.095511	0.091322	0.203570	1991.921143
9857.157595	1.224587	0.170417	549.839783
9857.158551	0.617919	0.170417	1140.570068
9857.159461	0.092959	0.170417	1225.162720
9857.160353	0.091113	0.170417	1306.435791
9857.161288	0.091238	0.170417	1391.743164
9857.162187	0.091289	0.170417	1473.812012
9857.163079	0.091135	0.170417	1555.104614
9857.163967	0.091260	0.170417	1636.143311
9857.164897	0.091282	0.170417	1721.035278
9857.165805	0.091198	0.170417	1803.842651
9857.166708	0.091212	0.170417	1886.207275
9857.167596	0.091157	0.170417	1967.154907
9858.191880	1.283317	0.187960	642.941650
9858.192806	0.588084	0.187960	1187.506958
9858.193708	0.092754	0.187960	1271.171021
9858.194593	0.091241	0.187960	1351.919678
9858.195529	0.091293	0.187960	1437.369629
9858.196431	0.091219	0.187960	1519.649658
9858.197322	0.091285	0.187960	1600.984985
9858.198260	0.091198	0.187960	1686.528198
9858.199170	0.091212	0.187960	1769.531250
9858.200068	0.091205	0.187960	1851.433228
9858.200959	0.091205	0.187960	1932.696777
9858.201895	0.091256	0.187960	2018.112549
9859.275261	1.228920	0.185471	599.712769
9859.276196	0.587223	0.185471	1148.766113
9859.277099	0.092556	0.185471	1232.344360
9859.277987	0.091271	0.185471	1313.392822
9859.278924	0.091370	0.185471	1399.006104
9859.279827	0.091212	0.185471	1481.370728
9859.280750	0.091212	0.185471	1565.559570
9859.281639	0.091223	0.185471	1646.656982
9859.282579	0.091300	0.185471	1732.479004
9859.283473	0.091190	0.185471	1814.003052
9859.284356	0.091252	0.185471	1894.578979
9859.285293	0.091344	0.185471	1980.168335
9860.301308	1.269924	0.191908	612.103516
9860.302234	0.601919	0.191908	1169.480469
9860.303136	0.092908	0.191908	1253.283203
9860.304022	0.091165	0.191908	1334.054932
9860.304962	0.091179	0.191908	1419.763428
9860.305866	0.091190	0.191908	1502.199341
9860.306759	0.091223	0.191908	1583.661621
9860.307693	0.091296	0.191908	1668.932495
9860.308600	0.091274	0.191908	1751.718384
9860.309498	0.091143	0.191908	1833.564453
9860.310391	0.091208	0.191908	1915.013672
9860.311318	0.091245	0.191908	1999.597900
9861.388767	1.227880	0.189632	551.317932
9861.389671	0.700521	0.189632	1184.589111
9861.390556	0.094362	0.189632	1268.099121
9861.391504	0.091179	0.189632	1354.536987
9861.392403	0.091190	0.189632	1436.516968
9861.393299	0.091187	0.189632	1518.220093
9861.394234	0.091168	0.189632	1603.462402
9861.395139	0.091205	0.189632	1686.002808
9861.396037	0.091179	0.189632	1767.881714
9861.396926	0.091201	0.189632	1848.959595
9861.397875	0.091201	0.189632	1935.509521
9861.398785	0.091176	0.189632	2018.479248
9862.421974	1.219303	0.185588	543.809143
9862.422875	0.713456	0.185588	1186.632812
9862.423763	0.094636	0.185588	1270.669800
9862.424716	0.091124	0.185588	1357.511230
9862.425636	0.091165	0.185588	1441.382568
9862.426536	0.091179	0.185588	1523.443848
9862.427477	0.091176	0.185588	1609.239990
9862.428380	0.091150	0.185588	1691.548340
9862.429280	0.091077	0.185588	1773.517334
9862.430166	0.091194	0.185588	1854.315063
9862.431120	0.091241	0.185588	1941.359375
9862.432019	0.091227	0.185588	2023.372314
9863.492050	1.214703	0.195082	542.972412
9863.492948	0.720663	0.195082	1190.127686
9863.493841	0.094581	0.195082	1274.588745
9863.494797	0.091208	0.195082	1361.784058
9863.495703	0.091194	0.195082	1444.405640
9863.496599	0.091296	0.195082	1526.207153
9863.497484	0.091146	0.195082	1606.871582
9863.498416	0.091219	0.195082	1691.888184
9863.499315	0.091110	0.195082	1773.795776
9863.500203	0.091157	0.195082	1854.743408
9863.501134	0.091150	0.195082	1939.604004
9863.502044	0.091157	0.195082	2022.557129
9864.542670	1.204098	0.180915	529.803040
9864.543566	0.713979	0.180915	1169.528564
9864.544533	0.092911	0.180915	1259.373901
9864.545440	0.091058	0.180915	1341.963867
9864.546335	0.091161	0.180915	1423.552856
9864.547266	0.091256	0.180915	1508.512329
9864.548170	0.091223	0.180915	1590.978027
9864.549064	0.091139	0.180915	1672.456177
9864.549949	0.091135	0.180915	1753.110840
9864.550887	0.091212	0.180915	1838.667847
9864.551784	0.091121	0.180915	1920.403076
9864.552690	0.091150	0.180915	2002.984863
9865.600518	1.238804	0.200307	616.924255
9865.601436	0.594558	0.200307	1162.728638
9865.602333	0.092996	0.200307	1246.145752
9865.603218	0.091208	0.200307	1326.865234
9865.604154	0.091172	0.200307	1412.202148
9865.605054	0.091256	0.200307	1494.332642
9865.605960	0.091161	0.200307	1576.924438
9865.606844	0.091289	0.200307	1657.624023
9865.607785	0.091205	0.200307	1743.447754
9865.608695	0.091146	0.200307	1826.390869
9865.609582	0.091212	0.200307	1907.296021
9865.610510	0.091216	0.200307	1991.944336
9866.663373	1.216384	0.190510	536.425476
9866.664355	0.596898	0.190510	1122.579590
9866.665269	0.092703	0.190510	1207.309814
9866.666159	0.091179	0.190510	1288.459351
9866.667092	0.091176	0.190510	1373.526123
9866.668003	0.091161	0.190510	1456.573730
9866.668902	0.091198	0.190510	1538.560303
9866.669796	0.091143	0.190510	1620.041748
9866.670732	0.091227	0.190510	1705.430054
9866.671633	0.091165	0.190510	1787.569336
9866.672542	0.091084	0.190510	1870.364624
9866.673429	0.091216	0.190510	1951.273071
9867.709898	1.210767	0.192408	526.683472
9867.710869	0.617135	0.192408	1125.921631
9867.711777	0.092878	0.192408	1210.255249
9867.712667	0.091121	0.192408	1291.352539
9867.713601	0.091230	0.192408	1376.561768
9867.714501	0.091289	0.192408	1458.721924
9867.715402	0.091106	0.192408	1540.808350
9867.716295	0.091128	0.192408	1622.185547
9867.717247	0.091263	0.192408	1709.068359
9867.718147	0.091168	0.192408	1791.119751
9867.719051	0.091274	0.192408	1873.631836
9867.719935	0.091172	0.192408	1954.227783
9868.778956	1.204036	0.179570	528.571655
9868.779853	0.711764	0.179570	1167.023926
9868.780814	0.093182	0.179570	1256.572144
9868.781726	0.091227	0.179570	1339.770996
9868.782620	0.091135	0.179570	1421.245850
9868.783545	0.091241	0.179570	1505.644165
9868.784443	0.091135	0.179570	1587.483643
9868.785345	0.091025	0.179570	1669.588501
9868.786234	0.091223	0.179570	1750.685913
9868.787182	0.091271	0.179570	1837.210571
9868.788080	0.091198	0.179570	1919.105957
9868.788981	0.091055	0.179570	2001.146240
9869.820362	1.206017	0.200154	528.235413
9869.821330	0.612074	0.200154	1120.723022
9869.822246	0.092673	0.200154	1205.611816
9869.823139	0.091150	0.200154	1287.008667
9869.824044	0.091194	0.200154	1369.539062
9869.824987	0.091187	0.200154	1455.527954
9869.825883	0.091205	0.200154	1537.247437
9869.826772	0.091205	0.200154	1618.328491
9869.827713	0.091179	0.200154	1704.128174
9869.828611	0.091044	0.200154	1785.885376
9869.829524	0.091172	0.200154	1869.125244
9869.830423	0.091249	0.200154	1951.157959
9870.896639	1.242286	0.191360	608.720337
9870.897569	0.598008	0.191360	1164.867676
9870.898464	0.092761	0.191360	1247.888916
9870.899352	0.091132	0.191360	1328.813721
9870.900284	0.091252	0.191360	1413.860962
9870.901186	0.091117	0.191360	1496.048462
9870.902090	0.091157	0.191360	1578.454590
9870.902978	0.091150	0.191360	1659.395752
9870.903923	0.091252	0.191360	1745.629272
9870.904832	0.091033	0.191360	1828.378052
9870.905728	0.091194	0.191360	1910.087769
9870.906668	0.091058	0.191360	1995.682617
9871.934937	1.228499	0.194047	556.509827
9871.935828	0.706703	0.194047	1186.182129
9871.936785	0.093387	0.194047	1275.553955
9871.937679	0.091150	0.194047	1357.041992
9871.938581	0.091146	0.194047	1439.255859
9871.939472	0.091263	0.194047	1520.571533
9871.940416	0.091219	0.194047	1606.682739
9871.941320	0.091205	0.194047	1689.131958
9871.942219	0.091234	0.194047	1771.151489
9871.943151	0.091245	0.194047	1856.191895
9871.944055	0.091271	0.194047	1938.700684
9871.944949	0.091110	0.194047	2020.152710
9873.010139	1.226122	0.189765	546.850342
9873.011071	0.668602	0.189765	1169.987671
9873.011968	0.093450	0.189765	1253.812012
9873.012878	0.091198	0.189765	1336.801758
9873.013804	0.091282	0.189765	1421.328613
9873.014704	0.091029	0.189765	1503.254761
9873.015598	0.091187	0.189765	1584.775513
9873.016533	0.091274	0.189765	1670.117065
9873.017434	0.091278	0.189765	1752.358643
9873.018329	0.091139	0.189765	1833.927979
9873.019217	0.091121	0.189765	1914.843018
9873.020142	0.091271	0.189765	1999.268433
9874.047439	1.215897	0.204336	537.426575
9874.048349	0.705798	0.204336	1179.703125
9874.049233	0.094373	0.204336	1263.128418
9874.050211	0.091187	0.204336	1352.308838
9874.051117	0.091201	0.204336	1434.937134
9874.052014	0.091278	0.204336	1516.813599
9874.052959	0.091113	0.204336	1602.915649
9874.053858	0.091135	0.204336	1684.846191
9874.054752	0.091095	0.204336	1766.285156
9874.055643	0.091088	0.204336	1847.444214
9874.056579	0.091318	0.204336	1932.918213
9874.057478	0.091113	0.204336	2014.829102
9875.123687	1.233219	0.189801	564.814331
9875.124614	0.667610	0.189801	1183.688721
9875.125505	0.093666	0.189801	1267.144897
9875.126450	0.091227	0.189801	1353.354248
9875.127355	0.091238	0.189801	1435.924438
9875.128252	0.091139	0.189801	1517.676025
9875.129138	0.091296	0.189801	1598.564575
9875.130091	0.091289	0.189801	1685.563110
9875.131001	0.091183	0.189801	1768.539551
9875.131894	0.091154	0.189801	1849.939697
9875.132828	0.091187	0.189801	1935.107910
9875.133728	0.091201	0.189801	2017.188965
9876.163021	1.197001	0.197878	526.680298
9876.164012	0.597872	0.197878	1119.171753
9876.164911	0.092640	0.197878	1202.455444
9876.165825	0.091157	0.197878	1285.773193
9876.166727	0.091165	0.197878	1368.003662
9876.167691	0.091018	0.197878	1455.745117
9876.168595	0.091062	0.197878	1538.065186
9876.169485	0.091124	0.197878	1619.165771
9876.170414	0.091223	0.197878	1703.912109
9876.171334	0.091099	0.197878	1787.722900
9876.172250	0.091121	0.197878	1871.189331
9876.173138	0.091128	0.197878	1952.110962
9877.235157	1.209829	0.189423	538.373962
9877.236058	0.713723	0.189423	1181.438477
9877.237011	0.093875	0.189423	1270.900879
9877.237908	0.091051	0.189423	1352.573608
9877.238825	0.091121	0.189423	1436.131226
9877.239715	0.091128	0.189423	1517.235107
9877.240654	0.091249	0.189423	1602.917725
9877.241559	0.091135	0.189423	1685.395142
9877.242450	0.091110	0.189423	1766.573853
9877.243370	0.091007	0.189423	1850.300415
9877.244305	0.091139	0.189423	1935.515259
9877.245208	0.091168	0.189423	2017.840088
9878.278605	1.201487	0.205733	527.452698
9878.279582	0.598502	0.205733	1112.189453
9878.280486	0.092816	0.205733	1196.095215
9878.281385	0.091117	0.205733	1278.009399
9878.282271	0.091223	0.205733	1358.833130
9878.283209	0.091271	0.205733	1444.445068
9878.284105	0.091124	0.205733	1526.092407
9878.285000	0.091168	0.205733	1607.687988
9878.285923	0.091201	0.205733	1691.866699
9878.286837	0.091157	0.205733	1775.184448
9878.287737	0.091154	0.205733	1857.222656
9878.288625	0.091285	0.205733	1938.284058
9879.346666	1.256774	0.190418	589.426880
9879.347576	0.659051	0.190418	1189.163696
9879.348467	0.093666	0.190418	1272.619873
9879.349413	0.091165	0.190418	1358.861572
9879.350313	0.091172	0.190418	1440.916260
9879.351212	0.091128	0.190418	1522.840332
9879.352097	0.091124	0.190418	1603.485352
9879.353040	0.091263	0.190418	1689.546753
9879.353948	0.091069	0.190418	1772.237671
9879.354841	0.091066	0.190418	1853.559326
9879.355774	0.091176	0.190418	1938.626099
9879.356681	0.091190	0.190418	2021.335571
9880.396249	1.214945	0.195489	535.790771
9880.397168	0.687975	0.195489	1168.039673
9880.398064	0.093889	0.195489	1252.164307
9880.398991	0.091146	0.195489	1336.656860
9880.399893	0.091252	0.195489	1418.966553
9880.400794	0.091132	0.195489	1501.076172
9880.401678	0.091241	0.195489	1581.733643
9880.402629	0.091271	0.195489	1668.532104
9880.403531	0.091187	0.195489	1750.782349
9880.404430	0.091106	0.195489	1832.686646
9880.405315	0.091241	0.195489	1913.435303
9880.406253	0.091249	0.195489	1999.026611
9881.454036	1.207859	0.191687	531.457947
9881.454928	0.731715	0.191687	1184.147827
9881.455883	0.093479	0.191687	1273.420288
9881.456778	0.091194	0.191687	1355.038818
9881.457677	0.091007	0.191687	1436.854248
9881.458570	0.091176	0.191687	1518.274048
9881.459513	0.091183	0.191687	1604.259521
9881.460419	0.091212	0.191687	1686.897705
9881.461313	0.091201	0.191687	1768.431519
9881.462243	0.091088	0.191687	1853.143066
9881.463139	0.091150	0.191687	1934.813354
9881.464034	0.091135	0.191687	2016.379395
9882.514888	1.203677	0.209053	528.414124
9882.515882	0.560951	0.209053	1085.999268
9882.516789	0.092512	0.209053	1169.907837
9882.517682	0.091135	0.209053	1251.291626
9882.518588	0.091201	0.209053	1333.919922
9882.519515	0.091124	0.209053	1418.392090
9882.520423	0.091121	0.209053	1501.129639
9882.521315	0.090948	0.209053	1582.255737
9882.522244	0.091212	0.209053	1666.991821
9882.523148	0.091274	0.209053	1749.503906
9882.524044	0.091172	0.209053	1831.193848
9882.524933	0.091128	0.209053	1912.206543
9883.561423	1.207148	0.190837	532.352478
9883.562390	0.610203	0.190837	1122.418457
9883.563291	0.092878	0.190837	1206.101929
9883.564194	0.091157	0.190837	1288.416870
9883.565087	0.091165	0.190837	1369.826782
9883.566023	0.091198	0.190837	1455.187622
9883.566932	0.091022	0.190837	1537.926392
9883.567822	0.091212	0.190837	1619.105225
9883.568755	0.091190	0.190837	1704.185669
9883.569658	0.091154	0.190837	1786.497314
9883.570558	0.091062	0.190837	1868.453125
9883.571449	0.091080	0.190837	1949.605713
9884.634569	1.199978	0.204324	526.790344
9884.635490	0.705608	0.204324	1176.655273
9884.636429	0.092937	0.204324	1263.923096
9884.637337	0.091058	0.204324	1346.604126
9884.638231	0.091113	0.204324	1428.059448
9884.639165	0.091168	0.204324	1513.210571
9884.640084	0.091110	0.204324	1596.940308
9884.640986	0.091099	0.204324	1679.111328
9884.641879	0.091073	0.204324	1760.439453
9884.642829	0.091165	0.204324	1847.045776
9884.643727	0.091157	0.204324	1928.904907
9884.644616	0.091124	0.204324	2009.914429
9885.669855	1.223306	0.205085	550.487549
9885.670765	0.693138	0.205085	1181.243530
9885.671654	0.093992	0.205085	1264.802124
9885.672589	0.091135	0.205085	1350.013550
9885.673515	0.091106	0.205085	1434.377686
9885.674415	0.091124	0.205085	1516.389526
9885.675302	0.091099	0.205085	1597.193970
9885.676260	0.091267	0.205085	1684.627808
9885.677159	0.091110	0.205085	1766.535400
9885.678080	0.091128	0.205085	1850.464233
9885.678963	0.091146	0.205085	1930.946411
9885.679893	0.091183	0.205085	2015.746460
9886.751183	1.203658	0.190087	530.813354
9886.752078	0.727921	0.190087	1182.302734
9886.753037	0.093179	0.190087	1271.661133
9886.753934	0.091102	0.190087	1353.379883
9886.754823	0.091051	0.190087	1434.324219
9886.755737	0.091176	0.190087	1517.658691
9886.756661	0.091121	0.190087	1601.854126
9886.757565	0.090970	0.190087	1684.091431
9886.758453	0.091161	0.190087	1765.042236
9886.759386	0.091165	0.190087	1850.098755
9886.760292	0.091106	0.190087	1932.640747
9886.761220	0.091128	0.190087	2017.207520
9887.783388	1.220024	0.207039	549.010986
9887.784285	0.711639	0.207039	1187.351562
9887.785242	0.093362	0.207039	1276.698853
9887.786140	0.091256	0.207039	1358.646851
9887.787043	0.091143	0.207039	1440.948608
9887.787967	0.091183	0.207039	1525.201538
9887.788861	0.091172	0.207039	1606.709229
9887.789802	0.091077	0.207039	1692.412354
9887.790711	0.091212	0.207039	1775.324219
9887.791630	0.091205	0.207039	1859.141479
9887.792523	0.091176	0.207039	1940.561279
9887.793475	0.091143	0.207039	2027.328979
9888.865750	1.227026	0.193995	550.934814
9888.866656	0.701188	0.193995	1186.210937
9888.867549	0.094427	0.193995	1270.534668
9888.868491	0.091304	0.193995	1356.542725
9888.869395	0.091329	0.193995	1439.104492
9888.870297	0.091307	0.193995	1521.463745
9888.871182	0.091267	0.193995	1602.235107
9888.872116	0.091388	0.193995	1687.591431
9888.873022	0.091190	0.193995	1770.209717
9888.873909	0.091293	0.193995	1851.186401
9888.874816	0.091326	0.193995	1934.018799
9888.875711	0.091219	0.193995	2015.660278
9889.901027	1.236903	0.207607	575.159912
9889.901938	0.660099	0.207607	1176.510010
9889.902880	0.093472	0.207607	1264.560303
9889.903791	0.091216	0.207607	1347.657959
9889.904710	0.091326	0.207607	1431.586304
9889.905598	0.091300	0.207607	1512.660767
9889.906557	0.091252	0.207607	1600.171875
9889.907479	0.091289	0.207607	1684.340332
9889.908367	0.091304	0.207607	1765.417969
9889.909284	0.091187	0.207607	1849.036011
9889.910198	0.091216	0.207607	1932.407227
9889.911115	0.091285	0.207607	2016.115967
9890.971082	1.202435	0.191691	527.869080
9890.971974	0.733513	0.191691	1182.162842
9890.972931	0.093384	0.191691	1271.531128
9890.973845	0.091289	0.191691	1354.969360
9890.974774	0.091300	0.191691	1439.787109
9890.975662	0.091234	0.191691	1520.802979
9890.976605	0.091326	0.191691	1606.923096
9890.977530	0.091223	0.191691	1691.304443
9890.978420	0.091271	0.191691	1772.535400
9890.979365	0.091329	0.191691	1858.841675
9890.980279	0.091274	0.191691	1942.266479
9890.981201	0.091392	0.191691	2026.529541
9892.020681	1.203860	0.210410	527.290588
9892.021658	0.608749	0.210410	1122.038086
9892.022569	0.092908	0.210410	1206.677002
9892.023458	0.091370	0.210410	1287.904541
9892.024381	0.091278	0.210410	1372.154175
9892.025294	0.091348	0.210410	1455.554565
9892.026210	0.091249	0.210410	1539.138428
9892.027106	0.091300	0.210410	1620.943237
9892.028036	0.091285	0.210410	1705.838623
9892.028935	0.091322	0.210410	1787.937134
9892.029832	0.091304	0.210410	1869.836548
9892.030717	0.091322	0.210410	1950.656494
9893.078487	1.215359	0.189918	537.188599
9893.079413	0.680515	0.189918	1167.345581
9893.080304	0.094069	0.189918	1251.160767
9893.081252	0.091282	0.189918	1337.695801
9893.082151	0.091212	0.189918	1419.695557
9893.083048	0.091219	0.189918	1501.519409
9893.083936	0.091201	0.189918	1582.506104
9893.084875	0.091399	0.189918	1668.329712
9893.085772	0.091381	0.189918	1750.298096
9893.086663	0.091296	0.189918	1831.643188
9893.087575	0.091355	0.189918	1914.958984
9893.088489	0.091406	0.189918	1998.504272
9894.142420	1.216066	0.210499	543.581360
9894.143313	0.723538	0.210499	1189.700439
9894.144257	0.094713	0.210499	1279.109619
9894.145166	0.091428	0.210499	1362.217896
9894.146068	0.091326	0.210499	1444.593628
9894.146954	0.091216	0.210499	1525.410889
9894.147902	0.091351	0.210499	1612.011963
9894.148805	0.091355	0.210499	1694.505493
9894.149702	0.091179	0.210499	1776.293213
9894.150587	0.091307	0.210499	1857.100220
9894.151525	0.091241	0.210499	1942.684692
9894.152434	0.091285	0.210499	2025.663086
9895.184849	1.211301	0.200468	536.606506
9895.185770	0.686580	0.200468	1168.946289
9895.186667	0.093801	0.200468	1253.086060
9895.187593	0.091238	0.200468	1337.572266
9895.188490	0.091267	0.200468	1419.438843
9895.189388	0.091044	0.200468	1501.196045
9895.190275	0.091124	0.200468	1582.023315
9895.191220	0.091274	0.200468	1668.277588
9895.192124	0.091274	0.200468	1750.789673
9895.193032	0.091208	0.200468	1833.606934
9895.193921	0.091146	0.200468	1914.635986
9895.194862	0.091176	0.200468	2000.432129
9896.261103	1.244011	0.200787	572.245178
9896.262026	0.654324	0.200787	1176.186035
9896.262924	0.093523	0.200787	1260.169678
9896.263811	0.091150	0.200787	1341.019653
9896.264759	0.091282	0.200787	1427.554687
9896.265665	0.091121	0.200787	1510.109985
9896.266557	0.091179	0.200787	1591.441895
9896.267496	0.091212	0.200787	1677.090088
9896.268402	0.091241	0.200787	1759.754883
9896.269308	0.091157	0.200787	1842.343262
9896.270197	0.091172	0.200787	1923.395020
9896.271138	0.091282	0.200787	2009.291138
9897.299421	1.221174	0.210422	549.528442
9897.300314	0.696962	0.210422	1171.915161
9897.301270	0.093252	0.210422	1261.063965
9897.302170	0.091205	0.210422	1343.148315
9897.303065	0.091176	0.210422	1424.750488
9897.303996	0.091208	0.210422	1509.665649
9897.304905	0.091256	0.210422	1592.617432
9897.305805	0.091121	0.210422	1674.625977
9897.306693	0.091238	0.210422	1755.645142
9897.307646	0.091263	0.210422	1842.619141
9897.308545	0.091238	0.210422	1924.641968
9897.309446	0.091238	0.210422	2006.847168
9898.373577	1.218168	0.200726	534.775635
9898.374558	0.583312	0.200726	1107.004395
9898.375469	0.092593	0.200726	1191.356445
9898.376362	0.091208	0.200726	1272.805664
9898.377290	0.091194	0.200726	1357.433594
9898.378189	0.091278	0.200726	1439.492554
9898.379088	0.091139	0.200726	1521.426392
9898.379974	0.091165	0.200726	1602.198242
9898.380921	0.091278	0.200726	1688.638550
9898.381820	0.091198	0.200726	1770.625122
9898.382725	0.091274	0.200726	1853.228516
9898.383615	0.091161	0.200726	1934.361694
9899.418074	1.217040	0.214390	533.063416
9899.418992	0.695178	0.214390	1171.237061
9899.419885	0.093977	0.214390	1255.158569
9899.420814	0.091238	0.214390	1339.918457
9899.421726	0.091208	0.214390	1423.100586
9899.422639	0.091176	0.214390	1506.343872
9899.423535	0.091176	0.214390	1588.037109
9899.424474	0.091245	0.214390	1673.716309
9899.425387	0.091198	0.214390	1756.979614
9899.426280	0.091223	0.214390	1838.441895
9899.427171	0.091150	0.214390	1919.656494
9899.428109	0.091274	0.214390	2005.271851
9900.479949	1.206207	0.199071	534.349854
9900.480840	0.709424	0.199071	1166.446533
9900.481810	0.093043	0.199071	1256.698486
9900.482720	0.091176	0.199071	1339.668213
9900.483608	0.091223	0.199071	1420.674316
9900.484556	0.091252	0.199071	1507.181641
9900.485458	0.091256	0.199071	1589.494629
9900.486347	0.091216	0.199071	1670.585449
9900.487261	0.091165	0.199071	1753.909912
9900.488174	0.091245	0.199071	1837.216675
9900.489074	0.091212	0.199071	1919.307617
9900.489965	0.091230	0.199071	2000.593994
9901.535712	1.228158	0.202293	553.899231
9901.536612	0.702224	0.202293	1185.900879
9901.537508	0.094362	0.202293	1270.448853
9901.538440	0.091113	0.202293	1355.366455
9901.539351	0.091113	0.202293	1438.370605
9901.540239	0.091256	0.202293	1519.406006
9901.541168	0.091208	0.202293	1604.138672
9901.542077	0.091150	0.202293	1686.993896
9901.542995	0.091154	0.202293	1770.672852
9901.543882	0.091271	0.202293	1851.630005
9901.544822	0.091238	0.202293	1937.393555
9901.545721	0.091227	0.202293	2019.406494
9902.589422	1.255594	0.201532	592.640625
9902.590343	0.633051	0.201532	1175.680176
9902.591298	0.092739	0.201532	1264.246216
9902.592200	0.091135	0.201532	1346.450195
9902.593125	0.091150	0.201532	1430.763916
9902.594015	0.091190	0.201532	1511.923218
9902.594954	0.091102	0.201532	1597.468262
9902.595853	0.091110	0.201532	1679.375854
9902.596742	0.091198	0.201532	1760.450439
9902.597684	0.091289	0.201532	1846.444702
9902.598592	0.091132	0.201532	1929.192139
9902.599515	0.091150	0.201532	2013.323486
9903.655383	1.215904	0.213798	545.941101
9903.656287	0.701327	0.213798	1179.940674
9903.657178	0.094303	0.213798	1263.964600
9903.658148	0.091157	0.213798	1352.387085
9903.659049	0.091110	0.213798	1434.476807
9903.659937	0.091073	0.213798	1515.349609
9903.660866	0.091179	0.213798	1600.055054
9903.661778	0.091172	0.213798	1683.203857
9903.662697	0.091055	0.213798	1766.883057
9903.663583	0.091099	0.213798	1847.596436
9903.664511	0.091208	0.213798	1932.237915
9903.665415	0.091135	0.213798	2014.624146
9904.698837	1.202922	0.197351	532.894653
9904.699735	0.719495	0.197351	1179.000732
9904.700674	0.094493	0.197351	1267.730103
9904.701594	0.091073	0.197351	1351.517212
9904.702495	0.091124	0.197351	1433.620117
9904.703386	0.091187	0.197351	1514.867310
9904.704331	0.091198	0.197351	1601.048950
9904.705234	0.091179	0.197351	1683.383789
9904.706148	0.091227	0.197351	1766.765137
9904.707033	0.091165	0.197351	1847.445801
9904.707963	0.091128	0.197351	1932.194824
9904.708867	0.091091	0.197351	2014.541382
9905.772014	1.241202	0.216497	572.194275
9905.772912	0.683595	0.216497	1186.062500
9905.773818	0.094047	0.216497	1271.268799
9905.774756	0.091121	0.216497	1356.739990
9905.775649	0.091132	0.216497	1438.120483
9905.776563	0.091051	0.216497	1521.341064
9905.777457	0.091077	0.216497	1602.763550
9905.778412	0.091095	0.216497	1689.759277
9905.779326	0.091095	0.216497	1773.020020
9905.780225	0.091194	0.216497	1855.003296
9905.781180	0.091172	0.216497	1942.072388
9905.782081	0.091066	0.216497	2024.122559
9906.809289	1.207379	0.205206	530.039429
9906.810266	0.606031	0.205206	1122.132202
9906.811173	0.092941	0.205206	1206.429443
9906.812060	0.091080	0.205206	1287.217651
9906.812982	0.091168	0.205206	1371.274780
9906.813890	0.091201	0.205206	1454.085449
9906.814795	0.091121	0.205206	1536.549561
9906.815684	0.091227	0.205206	1617.650146
9906.816642	0.091241	0.205206	1705.059448
9906.817547	0.091205	0.205206	1787.599854
9906.818454	0.091121	0.205206	1870.246216
9906.819349	0.091176	0.205206	1951.848389
9907.887566	1.212689	0.205004	533.583313
9907.888472	0.713580	0.205004	1180.087158
9907.889390	0.094416	0.205004	1266.761475
9907.890326	0.091234	0.205004	1352.156616
9907.891242	0.091208	0.205004	1435.703613
9907.892138	0.091179	0.205004	1517.400146
9907.893075	0.091267	0.205004	1602.917358
9907.893974	0.091121	0.205004	1684.834839
9907.894868	0.091190	0.205004	1766.358887
9907.895751	0.091168	0.205004	1846.860352
9907.896690	0.091212	0.205004	1932.508545
9907.897596	0.091216	0.205004	2015.150024
9908.921802	1.200190	0.215784	522.082825
9908.922739	0.704949	0.215784	1182.619751
9908.923651	0.093398	0.215784	1267.799072
9908.924560	0.091135	0.215784	1350.640991
9908.925453	0.091121	0.215784	1432.011719
9908.926394	0.091241	0.215784	1517.869873
9908.927293	0.091176	0.215784	1599.836670
9908.928187	0.091271	0.215784	1681.432739
9908.929071	0.091179	0.215784	1762.035156
9908.930009	0.091227	0.215784	1847.605957
9908.930919	0.091165	0.215784	1930.565674
9908.931817	0.091172	0.215784	2012.437988
9910.003169	1.228326	0.201496	551.518555
9910.004096	0.673202	0.201496	1175.576660
9910.004987	0.093739	0.201496	1259.098145
9910.005913	0.091216	0.201496	1343.563965
9910.006820	0.091252	0.201496	1426.329956
9910.007737	0.091223	0.201496	1509.981567
9910.008633	0.091227	0.201496	1591.720825
9910.009559	0.091333	0.201496	1676.295166
9910.010463	0.091274	0.201496	1758.807251
9910.011369	0.091084	0.201496	1841.329346
9910.012255	0.091051	0.201496	1922.000610
9910.013201	0.091282	0.201496	2008.353149
9911.036387	1.227224	0.211913	559.614197
9911.037321	0.655488	0.211913	1171.840210
9911.038207	0.093468	0.211913	1254.652832
9911.039135	0.091245	0.211913	1339.328247
9911.040051	0.091300	0.211913	1422.959106
9911.040956	0.091139	0.211913	1505.439819
9911.041850	0.091080	0.211913	1586.865601
9911.042779	0.091208	0.211913	1671.598267
9911.043680	0.091223	0.211913	1753.790283
9911.044586	0.091139	0.211913	1836.362183
9911.045476	0.091124	0.211913	1917.462769
9911.046410	0.091267	0.211913	2002.706299
9912.115657	1.204592	0.209423	527.611450
9912.116617	0.623785	0.209423	1126.445557
9912.117532	0.092904	0.209423	1211.452759
9912.118432	0.091128	0.209423	1293.467896
9912.119319	0.091241	0.209423	1374.399048
9912.120262	0.091176	0.209423	1460.377563
9912.121161	0.091102	0.209423	1542.278564
9912.122049	0.091238	0.209423	1623.297729
9912.122975	0.091234	0.209423	1707.780518
9912.123895	0.091146	0.209423	1791.635010
9912.124797	0.091238	0.209423	1873.931519
9912.125684	0.091190	0.209423	1954.817261
9913.150933	1.201959	0.206463	531.265991
9913.151837	0.716862	0.206463	1179.308838
9913.152725	0.094600	0.206463	1263.313232
9913.153689	0.091201	0.206463	1351.231201
9913.154591	0.091135	0.206463	1433.435181
9913.155482	0.091058	0.206463	1514.568115
9913.156388	0.091285	0.206463	1597.272705
9913.157324	0.091088	0.206463	1682.530762
9913.158229	0.091208	0.206463	1765.074463
9913.159121	0.091223	0.206463	1846.445557
9913.160056	0.091201	0.206463	1931.718628
9913.160971	0.091143	0.206463	2015.114136
9914.228168	1.202728	0.215289	525.592285
9914.229143	0.632758	0.215289	1142.530884
9914.230037	0.093040	0.215289	1225.708252
9914.230940	0.091307	0.215289	1308.158813
9914.231828	0.091267	0.215289	1389.203979
9914.232773	0.091241	0.215289	1475.427124
9914.233678	0.091198	0.215289	1557.960937
9914.234577	0.091190	0.215289	1639.940918
9914.235507	0.091234	0.215289	1724.788696
9914.236412	0.091227	0.215289	1807.348999
9914.237327	0.091154	0.215289	1890.754517
9914.238220	0.091234	0.215289	1972.226562
9915.267543	1.207639	0.207723	537.399475
9915.268435	0.713298	0.207723	1173.661621
9915.269375	0.093384	0.207723	1261.442383
9915.270295	0.091084	0.207723	1345.239624
9915.271194	0.091084	0.207723	1427.124146
9915.272127	0.091252	0.207723	1512.262695
9915.273032	0.091146	0.207723	1594.750000
9915.273929	0.091040	0.207723	1676.412964
9915.274822	0.091157	0.207723	1757.816406
9915.275767	0.091238	0.207723	1844.036133
9915.276669	0.091183	0.207723	1926.283081
9915.277567	0.091241	0.207723	2008.217896
9916.338688	1.229348	0.219458	607.297974
9916.339620	0.575497	0.219458	1143.661011
9916.340525	0.092644	0.219458	1227.503906
9916.341416	0.091080	0.219458	1308.656494
9916.342352	0.091172	0.219458	1393.993408
9916.343252	0.091187	0.219458	1476.061279
9916.344145	0.091095	0.219458	1557.409058
9916.345033	0.091165	0.219458	1638.363159
9916.345982	0.091249	0.219458	1724.958252
9916.346890	0.091146	0.219458	1807.718994
9916.347790	0.091172	0.219458	1889.773682
9916.348718	0.091311	0.219458	1974.510376
9917.386191	1.212122	0.207405	535.757751
9917.387096	0.719436	0.207405	1186.847412
9917.387982	0.094662	0.207405	1270.717773
9917.388949	0.091355	0.207405	1359.057983
9917.389849	0.091245	0.207405	1441.178589
9917.390745	0.091168	0.207405	1522.865356
9917.391628	0.091245	0.207405	1603.434814
9917.392558	0.091304	0.207405	1688.347290
9917.393467	0.091201	0.207405	1771.249146
9917.394365	0.091201	0.207405	1853.147827
9917.395297	0.091307	0.207405	1938.246338
9917.396203	0.091351	0.207405	2021.010620
9918.445028	1.218014	0.215011	560.286377
9918.445976	0.608987	0.215011	1137.605957
9918.446880	0.092886	0.215011	1221.574707
9918.447774	0.091201	0.215011	1303.108521
9918.448709	0.091285	0.215011	1388.460327
9918.449606	0.091230	0.215011	1470.294067
9918.450505	0.091256	0.215011	1552.333252
9918.451386	0.091201	0.215011	1632.681519
9918.452336	0.091307	0.215011	1719.423584
9918.453237	0.091267	0.215011	1801.655273
9918.454134	0.091219	0.215011	1883.479126
9918.455051	0.091278	0.215011	1967.181152
9919.504843	1.217073	0.209359	535.512024
9919.505814	0.617494	0.209359	1135.098633
9919.506716	0.093087	0.209359	1219.063232
9919.507617	0.091172	0.209359	1301.209106
9919.508549	0.091260	0.209359	1386.263184
9919.509453	0.091234	0.209359	1468.738770
9919.510353	0.091212	0.209359	1550.829712
9919.511242	0.091296	0.209359	1631.992187
9919.512196	0.091329	0.209359	1719.120361
9919.513105	0.091227	0.209359	1802.045532
9919.513995	0.091165	0.209359	1883.182007
9919.514903	0.091190	0.209359	1965.982666
9920.554453	1.210433	0.218632	541.063721
9920.555420	0.627327	0.218632	1147.688599
9920.556316	0.093032	0.218632	1231.045410
9920.557215	0.091194	0.218632	1313.028687
9920.558129	0.091263	0.218632	1396.443481
9920.559056	0.091238	0.218632	1481.020874
9920.559965	0.091172	0.218632	1563.896118
9920.560863	0.091194	0.218632	1645.788208
9920.561784	0.091362	0.218632	1729.932861
9920.562685	0.091282	0.218632	1812.177734
9920.563582	0.091176	0.218632	1893.962158
9920.564468	0.091190	0.218632	1974.756714
9921.623506	1.210184	0.205226	538.532043
9921.624401	0.715027	0.205226	1178.481079
9921.625359	0.093204	0.205226	1267.770874
9921.626270	0.091260	0.205226	1350.908569
9921.627162	0.091238	0.205226	1432.292725
9921.628082	0.091256	0.205226	1516.248291
9921.628981	0.091285	0.205226	1598.313843
9921.629891	0.091150	0.205226	1681.260254
9921.630789	0.091212	0.205226	1763.168823
9921.631715	0.091278	0.205226	1847.692383
9921.632615	0.091304	0.205226	1929.865723
9921.633518	0.091219	0.205226	2012.236938
9922.662902	1.265240	0.218753	606.050171
9922.663812	0.643275	0.218753	1191.430542
9922.664701	0.093549	0.218753	1274.595215
9922.665656	0.091256	0.218753	1361.744751
9922.666560	0.091110	0.218753	1444.107910
9922.667469	0.091194	0.218753	1527.003174
9922.668366	0.091300	0.218753	1608.899292
9922.669302	0.091234	0.218753	1694.294434
9922.670220	0.091307	0.218753	1778.114624
9922.671141	0.091245	0.218753	1862.151367
9922.672029	0.091238	0.218753	1943.170532
9922.672987	0.091245	0.218753	2030.583374
9923.741159	1.222994	0.210108	571.138367
9923.742100	0.606991	0.210108	1142.316895
9923.743004	0.092816	0.210108	1226.222656
9923.743905	0.091106	0.210108	1308.309082
9923.744843	0.091216	0.210108	1393.869507
9923.745747	0.091219	0.210108	1476.331909
9923.746657	0.091124	0.210108	1559.255005
9923.747547	0.091194	0.210108	1640.417480
9923.748496	0.091282	0.210108	1727.043823
9923.749400	0.091212	0.210108	1809.499634
9923.750294	0.091245	0.210108	1891.072754
9923.751220	0.091230	0.210108	1975.552124
9924.779476	1.217483	0.214080	544.214844
9924.780379	0.705015	0.214080	1180.843018
9924.781316	0.094109	0.214080	1269.023071
9924.782222	0.091245	0.214080	1351.691162
9924.783123	0.091274	0.214080	1433.929443
9924.784009	0.091143	0.214080	1514.681763
9924.784949	0.091348	0.214080	1600.548584
9924.785846	0.091245	0.214080	1682.395508
9924.786748	0.091208	0.214080	1764.665527
9924.787636	0.091219	0.214080	1845.668457
9924.788575	0.091285	0.214080	1931.385498
9924.789486	0.091293	0.214080	2014.553223
9925.851623	1.242231	0.219861	570.184265
9925.852550	0.646447	0.219861	1169.440186
9925.853442	0.093549	0.219861	1252.885498
9925.854374	0.091300	0.219861	1337.977173
9925.855284	0.091256	0.219861	1421.020264
9925.856188	0.091183	0.219861	1503.449585
9925.857079	0.091245	0.219861	1584.749023
9925.858012	0.091278	0.219861	1669.911499
9925.858916	0.091311	0.219861	1752.456665
9925.859819	0.091216	0.219861	1834.824585
9925.860701	0.091238	0.219861	1915.296265
9925.861643	0.091359	0.219861	2001.356079
9926.897097	1.199268	0.213504	524.079895
9926.898069	0.614586	0.213504	1121.457642
9926.898978	0.093043	0.213504	1206.033936
9926.899876	0.091110	0.213504	1287.850342
9926.900771	0.091190	0.213504	1369.465576
9926.901691	0.091289	0.213504	1453.451538
9926.902599	0.091146	0.213504	1536.212280
9926.903496	0.091252	0.213504	1618.065674
9926.904429	0.091256	0.213504	1703.207642
9926.905335	0.091176	0.213504	1785.812744
9926.906235	0.091161	0.213504	1867.857544
9926.907123	0.091198	0.213504	1948.840942
9927.958012	1.233728	0.221605	599.591858
9927.958949	0.589431	0.221605	1151.888916
9927.959850	0.092725	0.221605	1235.433838
9927.960737	0.091095	0.221605	1316.235107
9927.961701	0.091234	0.221605	1404.184814
9927.962603	0.091208	0.221605	1486.454834
9927.963499	0.091234	0.221605	1568.200562
9927.964387	0.091168	0.221605	1649.157959
9927.965323	0.091165	0.221605	1734.488037
9927.966222	0.091040	0.221605	1816.333008
9927.967112	0.091219	0.221605	1897.518311
9927.968038	0.091256	0.221605	1982.021484
9929.017801	1.203684	0.211023	526.009949
9929.018772	0.606379	0.211023	1114.804321
9929.019682	0.092750	0.211023	1199.207031
9929.020574	0.091154	0.211023	1280.515991
9929.021487	0.091150	0.211023	1363.735840
9929.022425	0.091187	0.211023	1449.268799
9929.023325	0.091249	0.211023	1531.392700
9929.024213	0.091263	0.211023	1612.434570
9929.025160	0.091263	0.211023	1698.861084
9929.026063	0.091223	0.211023	1781.235596
9929.026983	0.091230	0.211023	1865.167603
9929.027867	0.091230	0.211023	1945.815308
9930.066392	1.216948	0.227208	541.541992
9930.067332	0.680914	0.227208	1181.601440
9930.068250	0.093025	0.227208	1266.998291
9930.069148	0.091161	0.227208	1348.860718
9930.070033	0.091198	0.227208	1429.570557
9930.070974	0.091315	0.227208	1515.497681
9930.071879	0.091271	0.227208	1598.097656
9930.072785	0.091157	0.227208	1680.686035
9930.073671	0.091212	0.227208	1761.500000
9930.074628	0.091311	0.227208	1848.884644
9930.075537	0.091293	0.227208	1931.869751
9930.076431	0.091252	0.227208	2013.449463
9931.138520	1.223459	0.206261	546.886414
9931.139426	0.701788	0.206261	1182.706665
9931.140311	0.094548	0.206261	1266.381958
9931.141269	0.091348	0.206261	1353.893066
9931.142182	0.091172	0.206261	1437.132935
9931.143077	0.091198	0.206261	1518.754761
9931.143999	0.091293	0.206261	1602.926636
9931.144907	0.091238	0.206261	1685.770508
9931.145805	0.091307	0.206261	1767.764526
9931.146689	0.091274	0.206261	1848.451172
9931.147637	0.091289	0.206261	1934.993164
9931.148546	0.091337	0.206261	2018.018188
9932.173822	1.232541	0.223240	607.642944
9932.174741	0.614736	0.223240	1172.585693
9932.175632	0.093197	0.223240	1255.624268
9932.176514	0.091135	0.223240	1336.005615
9932.177456	0.091263	0.223240	1421.975708
9932.178364	0.091176	0.223240	1504.763062
9932.179268	0.091150	0.223240	1587.162598
9932.180154	0.091238	0.223240	1667.999268
9932.181107	0.091190	0.223240	1754.903564
9932.182020	0.091165	0.223240	1838.136841
9932.182919	0.091201	0.223240	1920.126709
9932.183844	0.091337	0.223240	2004.613159
9933.256135	1.196668	0.212392	516.960388
9933.257072	0.693332	0.212392	1166.612915
9933.257981	0.093380	0.212392	1251.495483
9933.258885	0.091212	0.212392	1333.951294
9933.259773	0.091238	0.212392	1414.970459
9933.260711	0.091271	0.212392	1500.582397
9933.261608	0.091194	0.212392	1582.383301
9933.262513	0.091190	0.212392	1664.910400
9933.263398	0.091124	0.212392	1745.555420
9933.264332	0.091234	0.212392	1830.768066
9933.265239	0.091146	0.212392	1913.437744
9933.266124	0.091168	0.212392	1994.121582
9934.287364	1.239668	0.226503	614.875244
9934.288291	0.581543	0.226503	1153.965576
9934.289192	0.092706	0.226503	1237.493896
9934.290081	0.091216	0.226503	1318.584717
9934.291038	0.091337	0.226503	1405.993896
9934.291943	0.091205	0.226503	1488.534302
9934.292840	0.091190	0.226503	1570.331909
9934.293728	0.091205	0.226503	1651.321777
9934.294671	0.091351	0.226503	1737.466064
9934.295562	0.091234	0.226503	1818.755615
9934.296452	0.091165	0.226503	1899.892090
9934.297395	0.091329	0.226503	1986.015625
9935.370695	1.204720	0.217923	524.053345
9935.371664	0.621562	0.217923	1126.347412
9935.372558	0.093138	0.217923	1209.613159
9935.373448	0.091139	0.217923	1290.726807
9935.374395	0.091289	0.217923	1377.177490
9935.375297	0.091212	0.217923	1459.450806
9935.376209	0.091252	0.217923	1542.672974
9935.377103	0.091245	0.217923	1624.246094
9935.378039	0.091304	0.217923	1709.706299
9935.378945	0.091285	0.217923	1792.410889
9935.379864	0.091223	0.217923	1876.244995
9935.380754	0.091252	0.217923	1957.459717
9936.401871	1.202703	0.222523	529.189148
9936.402765	0.732517	0.222523	1184.059326
9936.403713	0.093655	0.222523	1272.844116
9936.404605	0.091088	0.222523	1354.094238
9936.405507	0.091154	0.222523	1436.314697
9936.406397	0.091161	0.222523	1517.447876
9936.407349	0.091274	0.222523	1604.341064
9936.408254	0.091238	0.222523	1686.911255
9936.409154	0.091179	0.222523	1768.972534
9936.410076	0.091285	0.222523	1853.137695
9936.410979	0.091263	0.222523	1935.548584
9936.411877	0.091113	0.222523	2017.368286
9937.482184	1.200773	0.225029	523.536926
9937.483103	0.710171	0.225029	1176.184082
9937.484064	0.092878	0.225029	1265.440186
9937.484977	0.091212	0.225029	1348.716919
9937.485878	0.091154	0.225029	1430.846313
9937.486823	0.091311	0.225029	1517.135254
9937.487723	0.091274	0.225029	1599.282227
9937.488618	0.091187	0.225029	1680.894165
9937.489502	0.091190	0.225029	1761.506348
9937.490431	0.091219	0.225029	1846.249268
9937.491335	0.091307	0.225029	1928.791138
9937.492235	0.091241	0.225029	2010.908447
9938.519500	1.209525	0.221774	530.981506
9938.520457	0.629172	0.221774	1133.099487
9938.521362	0.093311	0.221774	1217.545532
9938.522263	0.091249	0.221774	1299.760742
9938.523198	0.091245	0.221774	1385.074951
9938.524099	0.091271	0.221774	1467.309937
9938.524992	0.091135	0.221774	1548.693726
9938.525874	0.091194	0.221774	1629.126709
9938.526813	0.091208	0.221774	1714.771484
9938.527715	0.091179	0.221774	1797.015137
9938.528622	0.091183	0.221774	1879.718018
9938.529513	0.091201	0.221774	1960.978271
9939.591633	1.202285	0.224018	532.612305
9939.592528	0.726515	0.224018	1182.843140
9939.593479	0.093530	0.224018	1271.790405
9939.594376	0.091241	0.224018	1353.634033
9939.595275	0.091183	0.224018	1435.607422
9939.596177	0.091205	0.224018	1517.874146
9939.597111	0.091278	0.224018	1603.127930
9939.598021	0.091091	0.224018	1686.020996
9939.598923	0.091150	0.224018	1768.238159
9939.599852	0.091282	0.224018	1853.038940
9939.600753	0.091179	0.224018	1935.191406
9939.601647	0.091146	0.224018	2016.676147
9940.636128	1.220592	0.223728	563.913513
9940.637082	0.610148	0.223728	1145.994385
9940.637990	0.092948	0.223728	1230.391113
9940.638882	0.091241	0.223728	1311.778442
9940.639807	0.091245	0.223728	1396.180176
9940.640718	0.091274	0.223728	1479.331177
9940.641620	0.091212	0.223728	1561.604492
9940.642509	0.091278	0.223728	1642.750732
9940.643454	0.091285	0.223728	1729.015381
9940.644361	0.091219	0.223728	1811.751465
9940.645256	0.091234	0.223728	1893.406006
9940.646180	0.091216	0.223728	1977.689453
9941.701080	1.222445	0.223535	546.432983
9941.701985	0.700818	0.223535	1180.673096
9941.702914	0.094318	0.223535	1268.294189
9941.703820	0.091337	0.223535	1351.045166
9941.704715	0.091216	0.223535	1432.683350
9941.705601	0.091216	0.223535	1513.500610
9941.706542	0.091245	0.223535	1599.362305
9941.707435	0.091293	0.223535	1680.886719
9941.708337	0.091227	0.223535	1763.173340
9941.709223	0.091252	0.223535	1844.022949
9941.710170	0.091260	0.223535	1930.445923
9941.711078	0.091238	0.223535	2013.289795
9942.753747	1.214418	0.216541	537.987122
9942.754654	0.711328	0.216541	1183.161621
9942.755539	0.094592	0.216541	1266.875732
9942.756492	0.091282	0.216541	1353.867187
9942.757392	0.091315	0.216541	1436.050415
9942.758288	0.091227	0.216541	1517.789673
9942.759177	0.091219	0.216541	1598.883789
9942.760119	0.091296	0.216541	1684.885010
9942.761015	0.091190	0.216541	1766.591431
9942.761908	0.091278	0.216541	1848.102783
9942.762844	0.091282	0.216541	1933.542480
9942.763751	0.091348	0.216541	2016.394775
9943.814611	1.202450	0.228223	527.875488
9943.815506	0.726299	0.228223	1177.912842
9943.816457	0.093274	0.228223	1266.616333
9943.817372	0.091234	0.228223	1350.095581
9943.818270	0.091238	0.228223	1432.027100
9943.819195	0.091289	0.228223	1516.469482
9943.820110	0.091176	0.228223	1599.895142
9943.821015	0.091172	0.228223	1682.405640
9943.821912	0.091201	0.228223	1764.213135
9943.822843	0.091194	0.228223	1849.114624
9943.823746	0.091289	0.228223	1931.548706
9943.824645	0.091245	0.228223	2013.578125
9944.869329	1.225697	0.216425	546.660889
9944.870298	0.605856	0.216425	1133.735107
9944.871199	0.093014	0.216425	1217.540649
9944.872088	0.091300	0.216425	1298.706421
9944.873025	0.091392	0.216425	1384.340332
9944.873932	0.091249	0.216425	1467.103027
9944.874827	0.091201	0.216425	1548.728027
9944.875714	0.091289	0.216425	1629.701416
9944.876651	0.091267	0.216425	1715.218628
9944.877561	0.091230	0.216425	1798.238403
9944.878464	0.091296	0.216425	1880.679077
9944.879348	0.091278	0.216425	1961.368896
9945.926083	1.196722	0.230826	519.377502
9945.927025	0.698049	0.230826	1176.939941
9945.927950	0.093329	0.230826	1263.269165
9945.928870	0.091165	0.230826	1347.140503
9945.929762	0.091234	0.230826	1428.521362
9945.930713	0.091271	0.230826	1515.319824
9945.931605	0.091146	0.230826	1596.622314
9945.932517	0.091201	0.230826	1679.797729
9945.933412	0.091282	0.230826	1761.494873
9945.934365	0.091230	0.230826	1848.437500
9945.935274	0.091234	0.230826	1931.369263
9945.936160	0.091198	0.230826	2012.170288
9946.984909	1.204636	0.218846	527.630676
9946.985856	0.661915	0.218846	1154.464355
9946.986767	0.093344	0.218846	1239.500244
9946.987669	0.091022	0.218846	1321.601807
9946.988558	0.091227	0.218846	1402.702393
9946.989503	0.091271	0.218846	1488.953247
9946.990406	0.091351	0.218846	1571.443481
9946.991299	0.091274	0.218846	1652.951538
9946.992232	0.091370	0.218846	1738.199463
9946.993136	0.091293	0.218846	1820.728027
9946.994044	0.091260	0.218846	1903.591919
9946.994941	0.091234	0.218846	1985.428955
9948.039637	1.220903	0.233420	540.860168
9948.040559	0.684902	0.233420	1172.340088
9948.041457	0.093823	0.233420	1256.593384
9948.042381	0.091329	0.233420	1340.981689
9948.043289	0.091263	0.233420	1423.848877
9948.044188	0.091227	0.233420	1505.861816
9948.045074	0.091282	0.233420	1586.737427
9948.046015	0.091326	0.233420	1672.674927
9948.046921	0.091227	0.233420	1755.326416
9948.047813	0.091282	0.233420	1836.749756
9948.048724	0.091187	0.233420	1919.820679
9948.049641	0.091245	0.233420	2003.492432
9949.097438	1.213165	0.220066	542.284912
9949.098327	0.721267	0.220066	1183.491455
9949.099264	0.093552	0.220066	1271.149902
9949.100172	0.091179	0.220066	1353.940674
9949.101067	0.091245	0.220066	1435.605103
9949.101984	0.091227	0.220066	1519.260132
9949.102897	0.091241	0.220066	1602.563599
9949.103809	0.091219	0.220066	1685.755737
9949.104701	0.091161	0.220066	1767.071289
9949.105645	0.091322	0.220066	1853.279297
9949.106540	0.091241	0.220066	1934.940430
9949.107436	0.091230	0.220066	2016.682983
9950.154192	1.207017	0.226133	533.501343
9950.155086	0.716792	0.226133	1174.313354
9950.156028	0.093750	0.226133	1262.625854
9950.156936	0.091154	0.226133	1345.393311
9950.157822	0.091274	0.226133	1426.262451
9950.158749	0.091282	0.226133	1510.880615
9950.159649	0.091274	0.226133	1593.027588
9950.160554	0.091260	0.226133	1675.617676
9950.161445	0.091165	0.226133	1756.845337
9950.162399	0.091267	0.226133	1843.914185
9950.163299	0.091348	0.226133	1926.127075
9950.164201	0.091154	0.226133	2008.347656
9951.210950	1.196920	0.224135	518.266418
9951.211883	0.711698	0.224135	1182.280640
9951.212786	0.093779	0.224135	1266.963379
9951.213676	0.091179	0.224135	1348.112915
9951.214565	0.091161	0.224135	1429.154907
9951.215498	0.091260	0.224135	1514.300293
9951.216396	0.091216	0.224135	1596.212158
9951.217299	0.091176	0.224135	1678.543701
9951.218190	0.091165	0.224135	1759.771362
9951.219146	0.091201	0.224135	1846.959717
9951.220059	0.091084	0.224135	1930.119385
9951.220961	0.091183	0.224135	2012.366333
9952.270793	1.197312	0.228514	518.436096
9952.271737	0.705498	0.228514	1184.426270
9952.272654	0.093058	0.228514	1269.760376
9952.273556	0.091106	0.228514	1351.937988
9952.274448	0.091143	0.228514	1433.237183
9952.275396	0.091263	0.228514	1519.754883
9952.276295	0.091234	0.228514	1601.774414
9952.277192	0.091139	0.228514	1683.526001
9952.278077	0.091252	0.228514	1764.284424
9952.279008	0.091274	0.228514	1849.260864
9952.279912	0.091161	0.228514	1931.670288
9952.280809	0.091223	0.228514	2013.497437
9953.321418	1.220903	0.225150	534.755615
9953.322401	0.583674	0.225150	1108.507446
9953.323310	0.092714	0.225150	1192.784180
9953.324208	0.091091	0.225150	1274.584229
9953.325139	0.091216	0.225150	1359.506104
9953.326050	0.091256	0.225150	1442.640381
9953.326952	0.091219	0.225150	1524.920410
9953.327840	0.091143	0.225150	1605.854980
9953.328775	0.091198	0.225150	1691.124634
9953.329673	0.091212	0.225150	1773.033203
9953.330565	0.091154	0.225150	1854.342163
9953.331458	0.091055	0.225150	1935.654053
9954.387411	1.213495	0.232582	540.005249
9954.388374	0.639891	0.232582	1156.220581
9954.389286	0.092864	0.232582	1240.912354
9954.390186	0.091157	0.232582	1322.953857
9954.391070	0.091172	0.232582	1403.549805
9954.391997	0.091154	0.232582	1488.049194
9954.392900	0.091198	0.232582	1570.400513
9954.393802	0.091201	0.232582	1652.663940
9954.394701	0.091227	0.232582	1734.676880
9954.395635	0.091245	0.232582	1819.899780
9954.396536	0.091212	0.232582	1902.081909
9954.397426	0.091172	0.232582	1983.224854
9955.432932	1.232692	0.227277	565.805481
9955.433831	0.694296	0.227277	1189.977295
9955.434717	0.094277	0.227277	1273.507080
9955.435654	0.091201	0.227277	1358.962524
9955.436563	0.091132	0.227277	1441.801147
9955.437468	0.091296	0.227277	1524.424316
9955.438359	0.091084	0.227277	1605.580200
9955.439313	0.091212	0.227277	1692.596558
9955.440217	0.091106	0.227277	1774.956299
9955.441105	0.091157	0.227277	1855.903931
9955.442042	0.091260	0.227277	1941.414307
9955.442946	0.091102	0.227277	2023.770752
9956.505081	1.220028	0.231736	588.053528
9956.506005	0.605922	0.231736	1147.925049
9956.506918	0.092728	0.231736	1232.585937
9956.507810	0.091044	0.231736	1313.796875
9956.508756	0.091274	0.231736	1400.142456
9956.509660	0.091256	0.231736	1482.637939
9956.510555	0.091113	0.231736	1564.184326
9956.511439	0.091150	0.231736	1644.760864
9956.512369	0.091260	0.231736	1729.632446
9956.513273	0.091029	0.231736	1811.922729
9956.514162	0.091241	0.231736	1893.036377
9956.515085	0.091260	0.231736	1977.269165
9957.541317	1.200718	0.225968	521.111511
9957.542281	0.662102	0.225968	1159.377930
9957.543195	0.092970	0.225968	1244.352539
9957.544082	0.091216	0.225968	1325.260986
9957.545002	0.091340	0.225968	1409.294067
9957.545904	0.091285	0.225968	1491.633545
9957.546800	0.091143	0.225968	1573.297241
9957.547686	0.091241	0.225968	1654.137207
9957.548587	0.091212	0.225968	1736.319336
9957.549525	0.091205	0.225968	1821.869507
9957.550425	0.091249	0.225968	1903.993408
9957.551312	0.091267	0.225968	1984.947266
9958.621711	1.253888	0.226524	639.482910
9958.622640	0.572875	0.226524	1171.683594
9958.623540	0.092607	0.226524	1255.030273
9958.624426	0.091161	0.226524	1335.798828
9958.625358	0.091271	0.226524	1420.863159
9958.626260	0.091219	0.226524	1503.143188
9958.627172	0.091187	0.226524	1586.305298
9958.628063	0.091190	0.226524	1667.555786
9958.629016	0.091249	0.226524	1754.515869
9958.629921	0.091168	0.226524	1837.023071
9958.630814	0.091201	0.226524	1918.465698
9958.631763	0.091289	0.226524	2005.098999
9959.654935	1.252830	0.234866	647.712891
9959.655861	0.564445	0.234866	1170.388550
9959.656754	0.092439	0.234866	1252.936523
9959.657647	0.091183	0.234866	1334.362793
9959.658574	0.091201	0.234866	1418.906250
9959.659474	0.091139	0.234866	1500.931274
9959.660391	0.091099	0.234866	1584.468750
9959.661282	0.091212	0.234866	1665.738770
9959.662219	0.091172	0.234866	1751.166870
9959.663119	0.091154	0.234866	1833.205078
9959.664007	0.091139	0.234866	1914.136475
9959.664946	0.091212	0.234866	1999.784668
9960.736209	1.206255	0.224248	534.370911
9960.737103	0.731448	0.224248	1188.285156
9960.738033	0.094680	0.224248	1276.337769
9960.738936	0.091154	0.224248	1358.649414
9960.739836	0.091066	0.224248	1440.608521
9960.740722	0.091318	0.224248	1521.516602
9960.741678	0.091337	0.224248	1608.834473
9960.742571	0.091161	0.224248	1690.241089
9960.743470	0.091025	0.224248	1772.072876
9960.744356	0.091205	0.224248	1852.880371
9960.745304	0.091278	0.224248	1939.411987
9960.746208	0.091124	0.224248	2021.788330
9961.768444	1.231582	0.239108	603.475220
9961.769369	0.614282	0.239108	1171.686279
9961.770287	0.092607	0.239108	1256.699951
9961.771174	0.091216	0.239108	1337.608398
9961.772116	0.091190	0.239108	1423.509521
9961.773017	0.091128	0.239108	1505.615845
9961.773929	0.091168	0.239108	1588.761230
9961.774819	0.091106	0.239108	1669.845581
9961.775772	0.091179	0.239108	1756.739380
9961.776673	0.091084	0.239108	1838.806030
9961.777562	0.091263	0.239108	1919.939209
9961.778494	0.091223	0.239108	2004.959229
9962.849753	1.205490	0.224546	542.470276
9962.850644	0.719238	0.224546	1183.311523
9962.851590	0.094420	0.224546	1272.633057
9962.852499	0.091124	0.224546	1355.464966
9962.853396	0.091161	0.224546	1437.236328
9962.854283	0.091168	0.224546	1518.102539
9962.855225	0.091205	0.224546	1604.017456
9962.856138	0.091128	0.224546	1687.217285
9962.857054	0.091223	0.224546	1770.777710
9962.857942	0.091183	0.224546	1851.748047
9962.858883	0.091223	0.224546	1937.588989
9962.859778	0.091183	0.224546	2019.197632
9963.885005	1.212990	0.235378	533.715393
9963.885912	0.715554	0.235378	1182.723022
9963.886801	0.094446	0.235378	1266.685303
9963.887755	0.091326	0.235378	1353.810059
9963.888663	0.091318	0.235378	1436.727173
9963.889563	0.091201	0.235378	1518.808228
9963.890473	0.091157	0.235378	1601.761353
9963.891383	0.091315	0.235378	1684.857666
9963.892290	0.091179	0.235378	1767.557251
9963.893181	0.091274	0.235378	1848.882812
9963.894107	0.091271	0.235378	1933.399536
9963.895010	0.091249	0.235378	2015.797241
9964.957173	1.226982	0.223817	587.724609
9964.958090	0.627345	0.223817	1163.000000
9964.958991	0.093307	0.223817	1247.069458
9964.959879	0.091212	0.223817	1328.065796
9964.960831	0.091304	0.223817	1414.986938
9964.961730	0.091249	0.223817	1497.019531
9964.962624	0.091241	0.223817	1578.589355
9964.963509	0.091194	0.223817	1659.295898
9964.964450	0.091249	0.223817	1745.161011
9964.965354	0.091091	0.223817	1827.507568
9964.966249	0.091256	0.223817	1909.181763
9964.967162	0.091249	0.223817	1992.491943
9966.003716	1.223763	0.238101	602.091614
9966.004644	0.586447	0.238101	1146.313965
9966.005548	0.092684	0.238101	1230.100586
9966.006435	0.091260	0.238101	1311.047974
9966.007367	0.091212	0.238101	1396.057739
9966.008266	0.091198	0.238101	1478.044312
9966.009167	0.091080	0.238101	1560.107666
9966.010056	0.091245	0.238101	1641.224609
9966.010998	0.091315	0.238101	1727.243042
9966.011912	0.091154	0.238101	1810.557373
9966.012807	0.091205	0.238101	1892.185669
9966.013736	0.091296	0.238101	1977.000000
9967.066568	1.201897	0.223663	522.825195
9967.067529	0.629286	0.223663	1127.568848
9967.068437	0.093094	0.223663	1212.098633
9967.069332	0.091110	0.223663	1293.641724
9967.070265	0.091230	0.223663	1378.759766
9967.071168	0.091271	0.223663	1461.177246
9967.072071	0.091135	0.223663	1543.472412
9967.072957	0.091062	0.223663	1624.153320
9967.073896	0.091172	0.223663	1709.763672
9967.074800	0.091172	0.223663	1792.183105
9967.075694	0.091212	0.223663	1873.726807
9967.076588	0.091201	0.223663	1955.260620
9968.123361	1.213246	0.238451	555.666626
9968.124318	0.616886	0.238451	1146.026489
9968.125239	0.092670	0.238451	1231.375244
9968.126129	0.091183	0.238451	1312.527954
9968.127063	0.091274	0.238451	1397.778320
9968.127970	0.091190	0.238451	1480.487793
9968.128875	0.091161	0.238451	1562.988403
9968.129759	0.091036	0.238451	1643.464600
9968.130706	0.091212	0.238451	1729.842529
9968.131606	0.091091	0.238451	1811.824707
9968.132496	0.091183	0.238451	1892.977417
9968.133414	0.091230	0.238451	1976.726929
9969.175006	1.226503	0.229311	556.832214
9969.175902	0.704575	0.229311	1188.131592
9969.176858	0.094230	0.229311	1278.215210
9969.177754	0.091168	0.229311	1359.901978
9969.178644	0.091143	0.229311	1441.018921
9969.179533	0.091161	0.229311	1522.060913
9969.180473	0.091201	0.229311	1607.790039
9969.181374	0.091106	0.229311	1689.876465
9969.182278	0.091132	0.229311	1772.259399
9969.183169	0.091099	0.229311	1853.428223
9969.184102	0.091146	0.229311	1938.467651
9969.185011	0.091150	0.229311	2021.322876
9970.241995	1.198132	0.237694	523.583862
9970.242887	0.733883	0.237694	1178.207520
9970.243854	0.093146	0.237694	1268.279419
9970.244762	0.091176	0.237694	1351.066772
9970.245659	0.091219	0.237694	1432.890625
9970.246584	0.091165	0.237694	1517.217773
9970.247484	0.091282	0.237694	1599.371338
9970.248394	0.091143	0.237694	1682.311035
9970.249284	0.091293	0.237694	1763.561523
9970.250212	0.091274	0.237694	1848.264160
9970.251118	0.091241	0.237694	1930.928955
9970.252019	0.091161	0.237694	2013.064941
9971.284433	1.211931	0.234874	535.673523
9971.285340	0.713562	0.234874	1182.874268
9971.286228	0.094504	0.234874	1266.794189
9971.287193	0.091274	0.234874	1354.874023
9971.288100	0.091124	0.234874	1437.523682
9971.288992	0.091132	0.234874	1518.813110
9971.289928	0.091176	0.234874	1604.153442
9971.290826	0.091208	0.234874	1686.058716
9971.291722	0.091146	0.234874	1767.725708
9971.292612	0.091241	0.234874	1848.930664
9971.293543	0.091245	0.234874	1933.879883
9971.294445	0.091168	0.234874	2016.113647
9972.358626	1.238760	0.232542	571.068237
9972.359522	0.695823	0.232542	1194.525391
9972.360486	0.093263	0.232542	1284.430908
9972.361385	0.091051	0.232542	1366.285767
9972.362286	0.091234	0.232542	1448.487671
9972.363170	0.091066	0.232542	1528.989746
9972.364130	0.091194	0.232542	1616.535889
9972.365037	0.091165	0.232542	1699.222168
9972.365927	0.091124	0.232542	1780.322754
9972.366856	0.091205	0.232542	1865.052002
9972.367755	0.091216	0.232542	1947.055054
9972.368657	0.091077	0.232542	2029.206177
9973.398991	1.198444	0.238190	527.315186
9973.399887	0.736523	0.238190	1187.240234
9973.400844	0.093614	0.238190	1276.829346
9973.401740	0.091168	0.238190	1358.516113
9973.402627	0.091260	0.238190	1439.463501
9973.403568	0.091241	0.238190	1525.321655
9973.404479	0.091106	0.238190	1608.319214
9973.405378	0.091124	0.238190	1690.239990
9973.406268	0.091124	0.238190	1771.340576
9973.407213	0.091205	0.238190	1857.529175
9973.408108	0.091157	0.238190	1939.114868
9973.409026	0.091154	0.238190	2022.793823
9974.473163	1.202871	0.230250	529.263306
9974.474134	0.604746	0.230250	1116.471680
9974.475047	0.092607	0.230250	1201.022217
9974.475966	0.091165	0.230250	1284.802490
9974.476857	0.091176	0.230250	1366.039917
9974.477798	0.091124	0.230250	1451.787842
9974.478696	0.091150	0.230250	1533.640503
9974.479584	0.091121	0.230250	1614.555664
9974.480517	0.091241	0.230250	1699.683960
9974.481426	0.091179	0.230250	1782.565796
9974.482344	0.091216	0.230250	1866.301880
9974.483237	0.091176	0.230250	1947.721680
9975.514583	1.223225	0.241843	550.451233
9975.515488	0.701829	0.241843	1185.606201
9975.516375	0.094376	0.241843	1269.317871
9975.517345	0.091238	0.241843	1357.818481
9975.518252	0.091168	0.241843	1440.508057
9975.519175	0.091058	0.241843	1524.554932
9975.520059	0.091219	0.241843	1605.192993
9975.521012	0.091271	0.241843	1692.174072
9975.521904	0.091198	0.241843	1773.522217
9975.522793	0.091176	0.241843	1854.577271
9975.523720	0.091333	0.241843	1939.242920
9975.524623	0.091095	0.241843	2021.501709
9976.582670	1.232010	0.231301	625.861328
9976.583605	0.574479	0.231301	1162.999023
9976.584501	0.092432	0.231301	1245.817749
9976.585390	0.091102	0.231301	1326.807739
9976.586326	0.091230	0.231301	1412.199463
9976.587232	0.091234	0.231301	1494.857544
9976.588134	0.091249	0.231301	1577.163940
9976.589021	0.091084	0.231301	1657.955444
9976.589970	0.091201	0.231301	1744.505371
9976.590873	0.091234	0.231301	1826.889771
9976.591766	0.091172	0.231301	1908.306274
9976.592719	0.091234	0.231301	1995.252441
9977.632207	1.205933	0.243878	531.816284
9977.633165	0.638082	0.243878	1143.099121
9977.634071	0.093157	0.243878	1227.499146
9977.634961	0.091128	0.243878	1308.603027
9977.635893	0.091194	0.243878	1393.595703
9977.636799	0.091172	0.243878	1476.197388
9977.637698	0.091227	0.243878	1558.210327
9977.638593	0.091088	0.243878	1639.733765
9977.639555	0.091241	0.243878	1727.508057
9977.640450	0.091183	0.243878	1809.116699
9977.641346	0.091198	0.243878	1890.829712
9977.642235	0.091128	0.243878	1971.842407
9978.694123	1.252895	0.233082	590.113770
9978.695033	0.650739	0.233082	1182.285889
9978.695967	0.093417	0.233082	1269.537109
9978.696872	0.091088	0.233082	1351.971436
9978.697770	0.091201	0.233082	1433.870117
9978.698654	0.091256	0.233082	1514.540527
9978.699589	0.091230	0.233082	1599.841064
9978.700482	0.091161	0.233082	1681.247681
9978.701383	0.091216	0.233082	1763.433105
9978.702288	0.091179	0.233082	1845.950317
9978.703229	0.091234	0.233082	1931.801636
9978.704137	0.091194	0.233082	2014.605713
9979.748812	1.223862	0.244683	539.723267
9979.749786	0.597136	0.244683	1121.333984
9979.750693	0.092688	0.244683	1205.401978
9979.751587	0.091176	0.244683	1286.912964
9979.752513	0.091183	0.244683	1371.348267
9979.753415	0.091252	0.244683	1453.657959
9979.754316	0.091154	0.244683	1535.787354
9979.755203	0.091157	0.244683	1616.643799
9979.756144	0.091234	0.244683	1702.495117
9979.757055	0.091201	0.244683	1785.579346
9979.757953	0.091234	0.244683	1867.507568
9979.758864	0.091150	0.244683	1950.545166
9980.803540	1.222266	0.230463	543.908203
9980.804448	0.702675	0.230463	1181.936768
9980.805334	0.094387	0.230463	1265.563843
9980.806303	0.091183	0.230463	1353.920044
9980.807210	0.091029	0.230463	1436.483398
9980.808105	0.091124	0.230463	1518.039673
9980.809030	0.091128	0.230463	1602.333008
9980.809926	0.091198	0.230463	1684.046021
9980.810823	0.091073	0.230463	1765.738525
9980.811707	0.091036	0.230463	1846.214722
9980.812642	0.091205	0.230463	1931.491211
9980.813542	0.091161	0.230463	2013.536011
9981.865474	1.233907	0.240530	610.784180
9981.866400	0.595309	0.240530	1162.040161
9981.867295	0.092959	0.240530	1245.238403
9981.868178	0.091293	0.240530	1325.849854
9981.869109	0.091256	0.240530	1410.809326
9981.870019	0.091337	0.240530	1493.925659
9981.870922	0.091168	0.240530	1576.250488
9981.871808	0.091117	0.240530	1656.980103
9981.872758	0.091315	0.240530	1743.729004
9981.873666	0.091256	0.240530	1826.589600
9981.874560	0.091201	0.240530	1908.123413
9981.875487	0.091223	0.240530	1992.687256
9982.917087	1.233886	0.236973	558.950134
9982.917991	0.693461	0.236973	1185.838623
9982.918876	0.094310	0.236973	1269.303223
9982.919836	0.091157	0.236973	1356.814209
9982.920730	0.091124	0.236973	1438.279297
9982.921614	0.091187	0.236973	1518.888184
9982.922548	0.091300	0.236973	1604.162476
9982.923460	0.091165	0.236973	1687.304565
9982.924358	0.091150	0.236973	1769.157227
9982.925251	0.091307	0.236973	1850.694702
9982.926198	0.091315	0.236973	1937.169678
9982.927104	0.091121	0.236973	2019.724976
9983.982028	1.212568	0.240163	532.317505
9983.983000	0.610155	0.240163	1125.388184
9983.983899	0.092963	0.240163	1208.961548
9983.984790	0.091121	0.240163	1290.150024
9983.985718	0.091252	0.240163	1374.832275
9983.986624	0.091194	0.240163	1457.453857
9983.987522	0.091157	0.240163	1539.312988
9983.988407	0.091187	0.240163	1620.013062
9983.989353	0.091256	0.240163	1706.341309
9983.990255	0.091139	0.240163	1788.548584
9983.991154	0.091183	0.240163	1870.521973
9983.992043	0.091168	0.240163	1951.570557
9985.028559	1.201062	0.236324	526.065125
9985.029452	0.725658	0.236324	1174.077637
9985.030408	0.093329	0.236324	1263.300049
9985.031335	0.091179	0.236324	1347.823120
9985.032223	0.091274	0.236324	1428.874756
9985.033168	0.091194	0.236324	1515.052979
9985.034070	0.091113	0.236324	1597.237183
9985.034992	0.091091	0.236324	1681.223389
9985.035879	0.091128	0.236324	1762.053833
9985.036835	0.091165	0.236324	1849.207153
9985.037732	0.091198	0.236324	1931.011353
9985.038650	0.091260	0.236324	2014.787842
9986.096600	1.221914	0.241880	551.083252
9986.097496	0.714349	0.241880	1191.140381
9986.098442	0.094479	0.241880	1280.517334
9986.099336	0.091296	0.241880	1362.136353
9986.100238	0.091139	0.241880	1444.343628
9986.101125	0.091172	0.241880	1525.213135
9986.102061	0.091329	0.241880	1610.697388
9986.102969	0.091267	0.241880	1693.567871
9986.103874	0.091307	0.241880	1776.201050
9986.104763	0.091194	0.241880	1857.272339
9986.105713	0.091355	0.241880	1944.059570
9986.106624	0.091201	0.241880	2027.143799
9987.143129	1.219633	0.237187	550.054260
9987.144032	0.706000	0.237187	1187.572021
9987.144990	0.094354	0.237187	1277.963379
9987.145888	0.091245	0.237187	1359.901489
9987.146791	0.091117	0.237187	1442.180054
9987.147679	0.091198	0.237187	1523.163452
9987.148619	0.091198	0.237187	1608.889160
9987.149521	0.091110	0.237187	1691.070068
9987.150426	0.091234	0.237187	1773.636963
9987.151313	0.091252	0.237187	1854.577881
9987.152267	0.091300	0.237187	1941.678101
9987.153174	0.091168	0.237187	2024.367676
9988.209115	1.228975	0.246250	554.267517
9988.210017	0.706472	0.246250	1191.505371
9988.210905	0.094431	0.246250	1275.360229
9988.211862	0.091241	0.246250	1362.678345
9988.212759	0.091194	0.246250	1444.479248
9988.213656	0.091212	0.246250	1526.296509
9988.214540	0.091223	0.246250	1606.937744
9988.215477	0.091285	0.246250	1692.472168
9988.216379	0.091230	0.246250	1774.762085
9988.217275	0.091282	0.246250	1856.550537
9988.218203	0.091271	0.246250	1941.249756
9988.219109	0.091241	0.246250	2023.914551
9989.258706	1.220292	0.232900	540.589233
9989.259637	0.674059	0.232900	1168.137939
9989.260531	0.093820	0.232900	1252.012695
9989.261468	0.091238	0.232900	1337.502441
9989.262375	0.091223	0.232900	1420.241821
9989.263279	0.091278	0.232900	1502.757202
9989.264168	0.091205	0.232900	1583.838257
9989.265106	0.091256	0.232900	1669.436523
9989.266016	0.091256	0.232900	1752.479614
9989.266909	0.091274	0.232900	1833.987671
9989.267799	0.091212	0.232900	1915.166504
9989.268747	0.091249	0.232900	2001.670410
9990.320589	1.208170	0.247346	530.386658
9990.321560	0.630472	0.247346	1142.575439
9990.322462	0.092838	0.247346	1226.315430
9990.323364	0.091219	0.247346	1308.595459
9990.324250	0.091256	0.247346	1389.448364
9990.325202	0.091274	0.247346	1476.341553
9990.326105	0.091278	0.247346	1558.765625
9990.327001	0.091230	0.247346	1640.508179
9990.327929	0.091249	0.247346	1725.187012
9990.328833	0.091285	0.247346	1807.708984
9990.329743	0.091139	0.247346	1890.645386
9990.330638	0.091176	0.247346	1972.247559
9991.376356	1.231058	0.236361	567.517822
9991.377248	0.703502	0.236361	1195.041748
9991.378204	0.093446	0.236361	1284.376221
9991.379106	0.091168	0.236361	1366.609985
9991.380000	0.091187	0.236361	1448.130737
9991.380888	0.091293	0.236361	1529.198730
9991.381843	0.091384	0.236361	1616.470703
9991.382754	0.091366	0.236361	1699.705078
9991.383652	0.091212	0.236361	1781.613647
9991.384580	0.091278	0.236361	1866.319702
9991.385477	0.091263	0.236361	1948.182983
9991.386375	0.091223	0.236361	2030.101318
9992.432092	1.226616	0.245287	547.070862
9992.432992	0.715181	0.245287	1190.733398
9992.433879	0.094636	0.245287	1274.675781
9992.434830	0.091249	0.245287	1361.453369
9992.435734	0.091219	0.245287	1443.915771
9992.436628	0.091110	0.245287	1525.367798
9992.437519	0.091282	0.245287	1606.699829
9992.438460	0.091219	0.245287	1692.537354
9992.439372	0.091212	0.245287	1775.722900
9992.440273	0.091238	0.245287	1857.928101
9992.441163	0.091252	0.245287	1939.142822
9992.442101	0.091223	0.245287	2024.710083
9993.492956	1.215004	0.236183	544.321594
9993.493870	0.679098	0.236183	1165.017090
9993.494826	0.093812	0.236183	1254.701660
9993.495741	0.091165	0.236183	1338.117187
9993.496640	0.091241	0.236183	1420.143311
9993.497526	0.091113	0.236183	1500.869629
9993.498479	0.091300	0.236183	1587.878540
9993.499385	0.091241	0.236183	1670.543335
9993.500282	0.091183	0.236183	1752.334351
9993.501167	0.091154	0.236183	1833.005249
9993.502116	0.091216	0.236183	1919.569092
9993.503023	0.091143	0.236183	2002.235352
9994.541514	1.220339	0.249433	533.288269
9994.542502	0.576204	0.249433	1102.577393
9994.543402	0.092487	0.249433	1185.815308
9994.544290	0.091194	0.249433	1266.795410
9994.545228	0.091241	0.249433	1352.379883
9994.546135	0.091212	0.249433	1435.109253
9994.547050	0.091285	0.249433	1518.635376
9994.547938	0.091245	0.249433	1599.661011
9994.548890	0.091157	0.249433	1686.442627
9994.549783	0.091165	0.249433	1767.852539
9994.550671	0.091271	0.249433	1848.901001
9994.551581	0.091278	0.249433	1931.964111
9995.609554	1.206559	0.236538	534.505554
9995.610444	0.722838	0.236538	1177.831543
9995.611391	0.093633	0.236538	1266.501831
9995.612295	0.091194	0.236538	1348.941040
9995.613191	0.091395	0.236538	1430.831177
9995.614118	0.091311	0.236538	1515.476562
9995.615021	0.091315	0.236538	1597.933716
9995.615923	0.091194	0.236538	1680.190552
9995.616811	0.091304	0.236538	1761.268188
9995.617759	0.091296	0.236538	1847.817139
9995.618656	0.091315	0.236538	1929.726440
9995.619554	0.091285	0.236538	2011.700684
9996.654095	1.250684	0.251584	634.096619
9996.655011	0.592581	0.251584	1176.900391
9996.655910	0.092853	0.251584	1260.375000
9996.656794	0.091205	0.251584	1341.000122
9996.657734	0.091326	0.251584	1426.846313
9996.658636	0.091168	0.251584	1509.080078
9996.659536	0.091183	0.251584	1591.144653
9996.660421	0.091267	0.251584	1671.916016
9996.661375	0.091318	0.251584	1759.033691
9996.662280	0.091230	0.251584	1841.597290
9996.663173	0.091194	0.251584	1923.033447
9996.664113	0.091219	0.251584	2008.779785
9997.727230	1.234274	0.241239	603.559814
9997.728159	0.593383	0.241239	1154.812256
9997.729063	0.092783	0.241239	1238.688232
9997.729955	0.091179	0.241239	1320.020020
9997.730907	0.091260	0.241239	1406.899292
9997.731804	0.091216	0.241239	1488.719849
9997.732702	0.091102	0.241239	1570.529663
9997.733585	0.091285	0.241239	1651.134644
9997.734532	0.091238	0.241239	1737.536865
9997.735429	0.091161	0.241239	1819.308228
9997.736324	0.091238	0.241239	1900.966064
9997.737250	0.091190	0.241239	1985.408203
9998.765519	1.207712	0.245078	532.601135
9998.766440	0.685961	0.245078	1164.370972
9998.767352	0.093940	0.245078	1250.044678
9998.768289	0.091212	0.245078	1335.510498
9998.769193	0.091296	0.245078	1418.042480
9998.770084	0.091146	0.245078	1499.253784
9998.771033	0.091241	0.245078	1585.841919
9998.771936	0.091344	0.245078	1668.325562
9998.772830	0.091212	0.245078	1749.869263
9998.773719	0.091219	0.245078	1830.963379
9998.774656	0.091326	0.245078	1916.535522
9998.775562	0.091219	0.245078	1999.180420
9999.840711	1.198319	0.245711	522.467102
9999.841676	0.680431	0.245711	1179.082886
9999.842591	0.092977	0.245711	1264.157104
9999.843515	0.091183	0.245711	1348.410034
9999.844398	0.091227	0.245711	1428.963257
9999.845359	0.091219	0.245711	1516.625244
9999.846269	0.091198	0.245711	1599.614990
9999.847161	0.091201	0.245711	1680.966431
9999.848091	0.091296	0.245711	1765.872070
9999.849008	0.091146	0.245711	1849.453125
9999.849924	0.091176	0.245711	1932.969971
9999.850811	0.091227	0.245711	2013.888184
10000.882129	1.205841	0.245247	531.775879
10000.883023	0.732495	0.245247	1186.626465
10000.883987	0.093387	0.245247	1276.651978
10000.884879	0.091223	0.245247	1358.023071
10000.885782	0.091344	0.245247	1440.506714
10000.886671	0.091271	0.245247	1521.646362
10000.887627	0.091256	0.245247	1608.887207
10000.888533	0.091230	0.245247	1691.541992
10000.889431	0.091282	0.245247	1773.512939
10000.890363	0.091256	0.245247	1858.563599
10000.891266	0.091304	0.245247	1941.010864
10000.892166	0.091318	0.245247	2023.197388
10001.952202	1.201919	0.246532	524.036682
10001.953095	0.727339	0.246532	1173.550293
10001.954051	0.093292	0.246532	1262.737671
10001.954958	0.091241	0.246532	1345.493652
10001.955862	0.091241	0.246532	1427.975952
10001.956790	0.091304	0.246532	1512.705811
10001.957694	0.091300	0.246532	1595.241089
10001.958591	0.091230	0.246532	1677.074829
10001.959474	0.091194	0.246532	1757.598999
10001.960407	0.091307	0.246532	1842.788818
10001.961304	0.091282	0.246532	1924.668579
10001.962204	0.091179	0.246532	2006.729858
10002.998730	1.208412	0.245594	534.118103
10002.999627	0.717576	0.245594	1177.783447
10003.000599	0.092860	0.245594	1268.043457
10003.001504	0.091187	0.245594	1350.567261
10003.002399	0.091161	0.245594	1432.156250
10003.003326	0.091252	0.245594	1516.747314
10003.004232	0.091267	0.245594	1599.435303
10003.005140	0.091234	0.245594	1682.275879
10003.006032	0.091241	0.245594	1763.663208
10003.006970	0.091285	0.245594	1849.288940
10003.007874	0.091318	0.245594	1931.840698
10003.008773	0.091227	0.245594	2013.853638
10004.060635	1.218684	0.251757	547.189148
10004.061558	0.678527	0.251757	1173.469238
10004.062449	0.093768	0.251757	1257.016846
10004.063374	0.091205	0.251757	1341.381348
10004.064278	0.091205	0.251757	1423.830566
10004.065179	0.091187	0.251757	1505.989624
10004.066068	0.091124	0.251757	1586.999146
10004.067013	0.091179	0.251757	1673.163452
10004.067908	0.091187	0.251757	1754.775391
10004.068816	0.091099	0.251757	1837.492920
10004.069706	0.091135	0.251757	1918.603271
10004.070642	0.091238	0.251757	2004.001831
10005.118433	1.220790	0.244861	555.459351
10005.119335	0.696903	0.244861	1184.065918
10005.120279	0.094167	0.244861	1272.959961
10005.121185	0.091227	0.244861	1355.611450
10005.122075	0.091201	0.244861	1436.780518
10005.122962	0.091241	0.244861	1517.711670
10005.123891	0.091230	0.244861	1602.464722
10005.124804	0.091252	0.244861	1685.778198
10005.125704	0.091150	0.244861	1767.813110
10005.126589	0.091168	0.244861	1848.496948
10005.127536	0.091205	0.244861	1934.867920
10005.128438	0.091227	0.244861	2017.154541
10006.170057	1.201754	0.255886	525.166565
10006.171000	0.703543	0.255886	1188.607178
10006.171929	0.093168	0.255886	1275.160034
10006.172856	0.091241	0.255886	1359.740845
10006.173741	0.091208	0.255886	1440.460327
10006.174689	0.091304	0.255886	1527.016235
10006.175600	0.091208	0.255886	1610.107178
10006.176514	0.091219	0.255886	1693.481812
10006.177409	0.091187	0.255886	1775.093750
10006.178356	0.091267	0.255886	1861.523682
10006.179282	0.091238	0.255886	1946.009888
10006.180168	0.091230	0.255886	2026.840088
10007.237071	1.214729	0.239096	538.124939
10007.237993	0.682548	0.239096	1167.433838
10007.238889	0.093926	0.239096	1251.591309
10007.239823	0.091307	0.239096	1336.872437
10007.240722	0.091263	0.239096	1418.918213
10007.241628	0.091271	0.239096	1501.609497
10007.242518	0.091351	0.239096	1582.912109
10007.243470	0.091362	0.239096	1669.889038
10007.244379	0.091252	0.239096	1752.837524
10007.245270	0.091315	0.239096	1834.198975
10007.246185	0.091230	0.239096	1917.674805
10007.247102	0.091311	0.239096	2001.406982
10008.279549	1.231132	0.252111	602.023315
10008.280471	0.604493	0.252111	1159.366211
10008.281370	0.093051	0.252111	1243.018677
10008.282261	0.091282	0.252111	1324.350708
10008.283226	0.091384	0.252111	1412.536499
10008.284128	0.091315	0.252111	1494.902344
10008.285024	0.091296	0.252111	1576.703857
10008.285909	0.091256	0.252111	1657.465454
10008.286849	0.091300	0.252111	1743.287476
10008.287750	0.091348	0.252111	1825.591675
10008.288648	0.091263	0.252111	1907.546265
10008.289579	0.091388	0.252111	1992.628418
10009.354703	1.202596	0.238302	526.737244
10009.355596	0.733960	0.238302	1182.163574
10009.356560	0.093501	0.238302	1272.298462
10009.357467	0.091260	0.238302	1355.071045
10009.358353	0.091355	0.238302	1436.011597
10009.359271	0.091282	0.238302	1519.808228
10009.360187	0.091348	0.238302	1603.482666
10009.361097	0.091293	0.238302	1686.559082
10009.361999	0.091304	0.238302	1768.915039
10009.362923	0.091370	0.238302	1853.340576
10009.363823	0.091304	0.238302	1935.513916
10009.364730	0.091249	0.238302	2018.276611
10010.391008	1.232304	0.256784	561.930420
10010.391912	0.691505	0.256784	1187.051025
10010.392797	0.094266	0.256784	1270.476807
10010.393749	0.091256	0.256784	1357.352661
10010.394645	0.091267	0.256784	1439.127930
10010.395533	0.091318	0.256784	1520.218628
10010.396462	0.091293	0.256784	1605.029541
10010.397376	0.091337	0.256784	1688.511230
10010.398279	0.091216	0.256784	1770.879150
10010.399165	0.091359	0.256784	1851.822876
10010.400116	0.091362	0.256784	1938.708374
10010.401023	0.091278	0.256784	2021.497559
10011.471321	1.226759	0.246556	555.721863
10011.472251	0.649955	0.246556	1160.179932
10011.473150	0.093512	0.246556	1244.247192
10011.474113	0.091216	0.246556	1332.088013
10011.475018	0.091344	0.246556	1414.754395
10011.475908	0.091278	0.246556	1495.991943
10011.476844	0.091293	0.246556	1581.441895
10011.477759	0.091223	0.246556	1664.911133
10011.478676	0.091384	0.246556	1748.710571
10011.479563	0.091238	0.246556	1829.638428
10011.480501	0.091307	0.246556	1915.284790
10011.481392	0.091227	0.246556	1996.567871
10012.504521	1.203699	0.259439	528.423706
10012.505420	0.712068	0.259439	1168.572754
10012.506405	0.092845	0.259439	1260.025513
10012.507312	0.091165	0.259439	1342.711792
10012.508208	0.091296	0.259439	1424.513306
10012.509132	0.091359	0.259439	1508.928711
10012.510038	0.091403	0.259439	1591.739502
10012.510935	0.091340	0.259439	1673.671753
10012.511817	0.091249	0.259439	1754.153198
10012.512752	0.091428	0.259439	1839.638550
10012.513655	0.091274	0.259439	1922.059326
10012.514554	0.091227	0.259439	2004.072266
10013.585915	1.265779	0.241871	612.636902
10013.586830	0.625082	0.241871	1184.586670
10013.587725	0.093395	0.241871	1268.175049
10013.588612	0.091274	0.241871	1349.135498
10013.589568	0.091377	0.241871	1436.491821
10013.590471	0.091377	0.241871	1519.005249
10013.591372	0.091318	0.241871	1601.283081
10013.592296	0.091370	0.241871	1685.708618
10013.593206	0.091406	0.241871	1768.888306
10013.594105	0.091282	0.241871	1850.950562
10013.594998	0.091359	0.241871	1932.533813
10013.595961	0.091329	0.241871	2020.484009
10014.618067	1.210470	0.256704	535.027710
10014.619023	0.649944	0.256704	1156.374023
10014.619923	0.093274	0.256704	1240.320557
10014.620818	0.091271	0.256704	1322.007935
10014.621705	0.091278	0.256704	1402.971558
10014.622628	0.091395	0.256704	1487.329346
10014.623536	0.091289	0.256704	1570.219849
10014.624439	0.091260	0.256704	1652.627441
10014.625334	0.091260	0.256704	1734.304932
10014.626280	0.091469	0.256704	1820.834106
10014.627180	0.091326	0.256704	1903.027222
10014.628073	0.091370	0.256704	1984.620361
10015.699418	1.228033	0.246323	548.930969
10015.700351	0.653174	0.246323	1158.342041
10015.701245	0.093483	0.246323	1241.915527
10015.702179	0.091212	0.246323	1327.107666
10015.703081	0.091241	0.246323	1409.407471
10015.703982	0.091212	0.246323	1491.589600
10015.704876	0.091161	0.246323	1573.087402
10015.705824	0.091307	0.246323	1659.646729
10015.706722	0.091172	0.246323	1741.519043
10015.707614	0.091176	0.246323	1822.847656
10015.708503	0.091179	0.246323	1903.906006
10015.709449	0.091300	0.246323	1990.275879
10016.733657	1.218278	0.253610	547.006653
10016.734561	0.699573	0.253610	1179.420410
10016.735447	0.094325	0.253610	1262.992310
10016.736400	0.091212	0.253610	1349.917480
10016.737314	0.091132	0.253610	1433.211792
10016.738207	0.091146	0.253610	1514.605347
10016.739141	0.091263	0.253610	1599.845337
10016.740047	0.091245	0.253610	1682.513428
10016.740947	0.091271	0.253610	1764.657104
10016.741837	0.091212	0.253610	1845.835937
10016.742758	0.091227	0.253610	1929.855835
10016.743686	0.091216	0.253610	2014.504150
10017.811974	1.243539	0.253739	621.769409
10017.812892	0.601835	0.253739	1174.253662
10017.813787	0.093051	0.253739	1257.533936
10017.814675	0.091245	0.253739	1338.559570
10017.815603	0.091271	0.253739	1423.258789
10017.816508	0.091267	0.253739	1505.855469
10017.817409	0.091219	0.253739	1588.044189
10017.818297	0.091289	0.253739	1669.108887
10017.819255	0.091296	0.253739	1756.570801
10017.820162	0.091154	0.253739	1839.247070
10017.821054	0.091113	0.253739	1920.520142
10017.821991	0.091293	0.253739	2006.061401
10018.848205	1.212729	0.251378	532.388245
10018.849149	0.653130	0.251378	1148.942871
10018.850064	0.093256	0.251378	1234.271729
10018.850961	0.091216	0.251378	1316.092285
10018.851893	0.091187	0.251378	1401.078125
10018.852803	0.091245	0.251378	1484.111206
10018.853710	0.091274	0.251378	1566.897095
10018.854603	0.091187	0.251378	1648.326660
10018.855557	0.091238	0.251378	1735.367554
10018.856459	0.091282	0.251378	1817.703735
10018.857356	0.091121	0.251378	1899.438965
10018.858256	0.091238	0.251378	1981.552979
10019.924428	1.202908	0.261397	528.076477
10019.925408	0.588640	0.261397	1104.943848
10019.926304	0.092937	0.261397	1188.215454
10019.927203	0.091128	0.261397	1270.139404
10019.928088	0.091146	0.261397	1350.803833
10019.929025	0.091190	0.261397	1436.249023
10019.929926	0.091143	0.261397	1518.368530
10019.930823	0.091088	0.261397	1600.074097
10019.931753	0.091216	0.261397	1684.904785
10019.932661	0.091263	0.261397	1767.771973
10019.933561	0.091304	0.261397	1849.945312
10019.934452	0.091198	0.261397	1931.202271
10020.963804	1.225660	0.247455	550.321533
10020.964702	0.693904	0.247455	1173.447144
10020.965651	0.093241	0.247455	1261.932861
10020.966558	0.091172	0.247455	1344.625732
10020.967452	0.091139	0.247455	1426.103882
10020.968393	0.091238	0.247455	1511.958618
10020.969291	0.091238	0.247455	1593.890137
10020.970193	0.091146	0.247455	1676.104004
10020.971081	0.091230	0.247455	1757.116699
10020.972024	0.091230	0.247455	1843.146973
10020.972933	0.091088	0.247455	1925.945679
10020.973830	0.091150	0.247455	2007.707153
10022.037987	1.214290	0.254238	561.001770
10022.038921	0.629403	0.254238	1148.864258
10022.039828	0.093003	0.254238	1233.217896
10022.040722	0.091113	0.254238	1314.673218
10022.041645	0.091150	0.254238	1398.804565
10022.042549	0.091187	0.254238	1481.237183
10022.043453	0.091157	0.254238	1563.643311
10022.044339	0.091106	0.254238	1644.363159
10022.045286	0.091293	0.254238	1730.817383
10022.046184	0.091080	0.254238	1812.607544
10022.047078	0.091183	0.254238	1894.125000
10022.047993	0.091172	0.254238	1977.547241
10023.079393	1.234838	0.255814	561.851135
10023.080305	0.674341	0.255814	1176.849976
10023.081198	0.093761	0.255814	1260.578491
10023.082134	0.091099	0.255814	1345.846802
10023.083070	0.091099	0.255814	1431.115112
10023.083974	0.091172	0.255814	1513.534424
10023.084864	0.091219	0.255814	1594.719727
10023.085813	0.091216	0.255814	1681.283569
10023.086715	0.091176	0.255814	1763.523926
10023.087636	0.091201	0.255814	1847.520264
10023.088520	0.091245	0.255814	1928.180908
10023.089455	0.091165	0.255814	2013.419800
10024.151550	1.276260	0.258178	625.367310
10024.152472	0.603453	0.258178	1181.751221
10024.153374	0.092919	0.258178	1265.563843
10024.154260	0.091102	0.258178	1346.280518
10024.155205	0.091212	0.258178	1432.475952
10024.156112	0.091187	0.258178	1515.182129
10024.157001	0.091183	0.258178	1596.243652
10024.157938	0.091157	0.258178	1681.657959
10024.158848	0.091219	0.258178	1764.667725
10024.159743	0.091080	0.258178	1846.184570
10024.160633	0.091183	0.258178	1927.337280
10024.161578	0.091198	0.258178	2013.518921
10025.192923	1.227513	0.258319	553.608582
10025.193826	0.691666	0.258319	1178.183228
10025.194785	0.093402	0.258319	1267.755859
10025.195694	0.091249	0.258319	1350.701050
10025.196594	0.091198	0.258319	1432.778809
10025.197476	0.091139	0.258319	1513.163330
10025.198412	0.091271	0.258319	1598.592773
10025.199323	0.091285	0.258319	1681.753784
10025.200221	0.091201	0.258319	1763.652466
10025.201151	0.091260	0.258319	1848.524048
10025.202054	0.091318	0.258319	1930.984497
10025.202956	0.091318	0.258319	2013.353638
10026.266069	1.221804	0.258754	547.368286
10026.266975	0.699587	0.258754	1181.194458
10026.267922	0.093574	0.258754	1269.809204
10026.268828	0.091201	0.258754	1352.437500
10026.269722	0.091183	0.258754	1433.954956
10026.270608	0.091198	0.258754	1514.755981
10026.271551	0.091329	0.258754	1600.879517
10026.272456	0.091198	0.258754	1683.413330
10026.273346	0.091190	0.258754	1764.572632
10026.274263	0.091212	0.258754	1848.214233
10026.275178	0.091201	0.258754	1931.663330
10026.276082	0.091077	0.258754	2013.996582
10027.306443	1.200139	0.254649	523.260681
10027.307342	0.718279	0.254649	1168.993408
10027.308309	0.093047	0.254649	1258.969727
10027.309217	0.091223	0.254649	1341.800293
10027.310114	0.091194	0.254649	1423.601196
10027.311047	0.091260	0.254649	1508.746582
10027.311951	0.091223	0.254649	1591.212280
10027.312851	0.091230	0.254649	1673.319702
10027.313741	0.091069	0.254649	1754.371460
10027.314682	0.091256	0.254649	1840.243408
10027.315575	0.091216	0.254649	1921.699097
10027.316475	0.091183	0.254649	2003.763672
10028.379606	1.216538	0.255528	541.359436
10028.380502	0.711083	0.255528	1178.489502
10028.381458	0.093398	0.255528	1267.778442
10028.382355	0.091121	0.255528	1349.513672
10028.383248	0.091223	0.255528	1430.975952
10028.384176	0.091205	0.255528	1515.614014
10028.385078	0.091285	0.255528	1597.953491
10028.385979	0.091165	0.255528	1680.092773
10028.386868	0.091165	0.255528	1761.138062
10028.387812	0.091194	0.255528	1847.225098
10028.388714	0.091135	0.255528	1929.429077
10028.389617	0.091168	0.255528	2011.753906
10029.418978	1.233226	0.254992	563.584412
10029.419876	0.696844	0.254992	1189.350708
10029.420823	0.094138	0.254992	1278.499512
10029.421723	0.091274	0.254992	1360.646484
10029.422618	0.091245	0.254992	1442.310913
10029.423510	0.091154	0.254992	1523.619873
10029.424454	0.091344	0.254992	1609.848633
10029.425364	0.091278	0.254992	1692.911621
10029.426273	0.091289	0.254992	1775.893433
10029.427163	0.091241	0.254992	1857.098389
10029.428090	0.091271	0.254992	1941.706421
10029.428994	0.091241	0.254992	2024.188721
10030.495219	1.261333	0.256160	591.565186
10030.496135	0.639445	0.256160	1177.296387
10030.497024	0.093442	0.256160	1260.366699
10030.497960	0.091208	0.256160	1345.737793
10030.498874	0.091183	0.256160	1429.078979
10030.499769	0.091271	0.256160	1510.766357
10030.500654	0.091293	0.256160	1591.560425
10030.501601	0.091296	0.256160	1678.018066
10030.502500	0.091227	0.256160	1760.031006
10030.503390	0.091216	0.256160	1841.213135
10030.504306	0.091208	0.256160	1924.760132
10030.505220	0.091278	0.256160	2008.188232
10031.532496	1.206691	0.258194	533.357300
10031.533391	0.723871	0.258194	1181.221680
10031.534344	0.093263	0.258194	1270.101318
10031.535249	0.091194	0.258194	1352.631714
10031.536146	0.091296	0.258194	1434.524536
10031.537055	0.091219	0.258194	1517.442993
10031.537976	0.091187	0.258194	1601.425781
10031.538879	0.091176	0.258194	1683.757324
10031.539766	0.091216	0.258194	1764.665771
10031.540698	0.091304	0.258194	1849.760864
10031.541602	0.091300	0.258194	1932.296143
10031.542507	0.091168	0.258194	2014.803345
10032.609745	1.206907	0.255374	531.038940
10032.610721	0.606951	0.255374	1123.422852
10032.611629	0.092794	0.255374	1207.679932
10032.612527	0.091245	0.255374	1289.618042
10032.613414	0.091139	0.255374	1370.458252
10032.614353	0.091216	0.255374	1456.109863
10032.615267	0.091168	0.255374	1539.437622
10032.616160	0.091139	0.255374	1620.824707
10032.617090	0.091274	0.255374	1705.709961
10032.617995	0.091256	0.255374	1788.296753
10032.618895	0.091205	0.255374	1870.381104
10032.619784	0.091183	0.255374	1951.442627
10033.646028	1.203695	0.264043	527.218445
10033.647004	0.676567	0.264043	1187.548218
10033.647896	0.092831	0.264043	1270.353271
10033.648802	0.091080	0.264043	1352.872070
10033.649691	0.091190	0.264043	1433.940186
10033.650616	0.091227	0.264043	1518.324951
10033.651521	0.091223	0.264043	1600.881836
10033.652423	0.091238	0.264043	1683.178345
10033.653311	0.091208	0.264043	1764.171509
10033.654259	0.091143	0.264043	1850.574707
10033.655165	0.091132	0.264043	1933.139893
10033.656059	0.091110	0.264043	2014.591919
10034.726344	1.200110	0.259407	526.848206
10034.727305	0.619336	0.259407	1122.030029
10034.728222	0.092988	0.259407	1207.300293
10034.729121	0.091135	0.259407	1289.230835
10034.730016	0.091234	0.259407	1370.885376
10034.730953	0.091340	0.259407	1456.471313
10034.731858	0.091014	0.259407	1538.839355
10034.732750	0.091176	0.259407	1620.167969
10034.733678	0.091241	0.259407	1704.840088
10034.734581	0.091241	0.259407	1787.231079
10034.735487	0.091198	0.259407	1869.856079
10034.736378	0.091208	0.259407	1951.122803
10035.758556	1.231648	0.264543	564.094788
10035.759464	0.683925	0.264543	1185.098267
10035.760373	0.094065	0.264543	1270.603271
10035.761294	0.091187	0.264543	1354.586060
10035.762193	0.091077	0.264543	1436.463989
10035.763080	0.091161	0.264543	1517.323730
10035.764011	0.091241	0.264543	1602.269531
10035.764921	0.091113	0.264543	1685.182617
10035.765828	0.091238	0.264543	1767.935303
10035.766716	0.091139	0.264543	1848.866699
10035.767674	0.091282	0.264543	1936.314575
10035.768577	0.091230	0.264543	2018.695679
10036.839887	1.208481	0.252760	534.148804
10036.840852	0.620936	0.252760	1133.352295
10036.841765	0.092977	0.252760	1218.240601
10036.842657	0.091139	0.252760	1299.536499
10036.843552	0.091208	0.252760	1381.168091
10036.844499	0.091267	0.252760	1467.598022
10036.845401	0.091227	0.252760	1549.884644
10036.846291	0.091227	0.252760	1631.076538
10036.847224	0.091245	0.252760	1716.208252
10036.848136	0.091329	0.252760	1799.500610
10036.849032	0.091249	0.252760	1881.259521
10036.849919	0.091245	0.252760	1962.193970
10037.873096	1.200601	0.266352	525.863037
10037.873989	0.735582	0.266352	1182.738037
10037.874949	0.093241	0.266352	1272.249390
10037.875859	0.091117	0.266352	1355.165771
10037.876749	0.091172	0.266352	1436.308716
10037.877677	0.091208	0.266352	1520.950195
10037.878590	0.091190	0.266352	1604.206787
10037.879507	0.091208	0.266352	1687.844971
10037.880395	0.091274	0.266352	1768.896606
10037.881346	0.091143	0.266352	1855.573242
10037.882243	0.091168	0.266352	1937.351074
10037.883127	0.091241	0.266352	2018.008545
10038.953460	1.252200	0.254202	582.272888
10038.954381	0.644667	0.254202	1176.010986
10038.955286	0.093138	0.254202	1260.301270
10038.956174	0.091256	0.254202	1341.336670
10038.957117	0.091241	0.254202	1427.377319
10038.958023	0.091161	0.254202	1509.969116
10038.958913	0.091168	0.254202	1591.108887
10038.959855	0.091241	0.254202	1677.058350
10038.960752	0.091238	0.254202	1758.898682
10038.961653	0.091223	0.254202	1841.090698
10038.962540	0.091150	0.254202	1921.940674
10038.963475	0.091234	0.254202	2007.244629
10039.988681	1.198374	0.265747	520.094360
10039.989625	0.704235	0.265747	1184.891846
10039.990534	0.093402	0.265747	1269.794312
10039.991444	0.091146	0.265747	1352.737427
10039.992334	0.091183	0.265747	1433.890137
10039.993272	0.091260	0.265747	1519.491821
10039.994168	0.091285	0.265747	1601.283569
10039.995070	0.091249	0.265747	1683.589966
10039.995960	0.091263	0.265747	1764.814453
10039.996899	0.091274	0.265747	1850.521118
10039.997806	0.091241	0.265747	1933.277100
10039.998706	0.091176	0.265747	2015.335083
10041.065930	1.215989	0.260712	532.603088
10041.066914	0.604076	0.260712	1127.013794
10041.067821	0.092739	0.260712	1211.128296
10041.068717	0.091168	0.260712	1292.815063
10041.069645	0.091252	0.260712	1377.497314
10041.070547	0.091176	0.260712	1459.737671
10041.071445	0.091190	0.260712	1541.626465
10041.072331	0.091135	0.260712	1622.372314
10041.073286	0.091241	0.260712	1709.507935
10041.074186	0.091263	0.260712	1791.645020
10041.075080	0.091245	0.260712	1873.218140
10041.075966	0.091168	0.260712	1953.993164
10042.105283	1.193053	0.266203	514.205872
10042.106237	0.670331	0.266203	1153.701416
10042.107152	0.093029	0.266203	1238.822510
10042.108052	0.091172	0.266203	1320.877197
10042.108941	0.091227	0.266203	1401.977783
10042.109893	0.091274	0.266203	1488.871094
10042.110797	0.091241	0.266203	1571.353394
10042.111699	0.091165	0.266203	1653.583862
10042.112599	0.091282	0.266203	1735.737427
10042.113523	0.091274	0.266203	1820.074951
10042.114428	0.091176	0.266203	1902.588867
10042.115316	0.091212	0.266203	1983.585205
10043.174356	1.219885	0.252603	547.728455
10043.175252	0.717107	0.252603	1190.256348
10043.176200	0.094332	0.252603	1279.683350
10043.177105	0.091227	0.252603	1362.243652
10043.177999	0.091238	0.252603	1443.810181
10043.178886	0.091190	0.252603	1524.695923
10043.179812	0.091252	0.252603	1609.195679
10043.180722	0.091168	0.252603	1692.158691
10043.181620	0.091227	0.252603	1774.080322
10043.182535	0.091311	0.252603	1857.629883
10043.183458	0.091311	0.252603	1941.909912
10043.184363	0.091219	0.252603	2024.463501
10044.222945	1.232120	0.264966	558.150513
10044.223868	0.659535	0.264966	1166.901245
10044.224761	0.093666	0.264966	1250.544800
10044.225644	0.091260	0.264966	1331.127197
10044.226595	0.091329	0.264966	1417.981445
10044.227490	0.091154	0.264966	1499.563843
10044.228385	0.091194	0.264966	1581.182373
10044.229315	0.091252	0.264966	1666.047119
10044.230221	0.091359	0.264966	1748.817993
10044.231126	0.091190	0.264966	1831.345093
10044.232012	0.091165	0.264966	1912.116943
10044.232963	0.091322	0.264966	1998.964233
10045.284820	1.201575	0.253948	534.700745
10045.285715	0.722908	0.253948	1181.703125
10045.286644	0.094783	0.253948	1269.756226
10045.287558	0.091095	0.253948	1353.017090
10045.288460	0.091066	0.253948	1435.158325
10045.289347	0.091230	0.253948	1516.079712
10045.290289	0.091351	0.253948	1602.132690
10045.291189	0.091223	0.253948	1684.233521
10045.292115	0.091121	0.253948	1768.611206
10045.293001	0.091179	0.253948	1849.395996
10045.293936	0.091348	0.253948	1934.806030
10045.294834	0.091139	0.253948	2016.648804
10046.341588	1.219966	0.261373	540.444885
10046.342496	0.701272	0.261373	1177.199829
10046.343385	0.094274	0.261373	1261.009155
10046.344350	0.091117	0.261373	1348.937012
10046.345273	0.091168	0.261373	1433.085205
10046.346169	0.091194	0.261373	1514.794922
10046.347101	0.091198	0.261373	1599.791016
10046.348016	0.091187	0.261373	1683.226685
10046.348926	0.091212	0.261373	1766.229736
10046.349813	0.091194	0.261373	1847.118652
10046.350761	0.091227	0.261373	1933.601685
10046.351655	0.091143	0.261373	2015.083130
10047.394264	1.212825	0.258935	545.771118
10047.395156	0.717026	0.258935	1185.358643
10047.396105	0.093292	0.258935	1273.892944
10047.397017	0.091212	0.258935	1357.078369
10047.397918	0.091249	0.258935	1439.293457
10047.398837	0.091307	0.258935	1523.204956
10047.399754	0.091274	0.258935	1606.903564
10047.400665	0.091143	0.258935	1689.934448
10047.401560	0.091267	0.258935	1771.618530
10047.402502	0.091282	0.258935	1857.605957
10047.403400	0.091267	0.258935	1939.563843
10047.404296	0.091183	0.258935	2021.263672
10048.459255	1.260491	0.263560	593.691162
10048.460182	0.630421	0.263560	1178.091553
10048.461078	0.093325	0.263560	1261.710937
10048.461987	0.091282	0.263560	1344.686035
10048.462900	0.091326	0.263560	1428.066406
10048.463808	0.091278	0.263560	1510.946899
10048.464696	0.091183	0.263560	1591.917236
10048.465624	0.091271	0.263560	1676.616455
10048.466542	0.091216	0.263560	1760.352539
10048.467440	0.091172	0.263560	1842.224854
10048.468326	0.091256	0.263560	1923.077759
10048.469283	0.091329	0.263560	2010.479980
10049.505800	1.237811	0.266094	622.619080
10049.506720	0.575742	0.266094	1152.301880
10049.507625	0.092640	0.266094	1236.141479
10049.508514	0.091117	0.266094	1317.144409
10049.509472	0.091172	0.266094	1404.487061
10049.510378	0.091176	0.266094	1487.092041
10049.511274	0.091289	0.266094	1568.887085
10049.512162	0.091227	0.266094	1649.896484
10049.513092	0.091282	0.266094	1734.788452
10049.513993	0.091150	0.266094	1816.914551
10049.514884	0.091124	0.266094	1898.106323
10049.515815	0.091296	0.266094	1983.103271
10050.576909	1.296943	0.265522	654.956360
10050.577830	0.573992	0.265522	1183.602783
10050.578747	0.092347	0.265522	1268.285400
10050.579641	0.091102	0.265522	1349.730835
10050.580601	0.091040	0.265522	1437.129272
10050.581525	0.091179	0.265522	1521.378906
10050.582415	0.091095	0.265522	1602.453369
10050.583356	0.091267	0.265522	1688.335693
10050.584273	0.091143	0.265522	1771.913452
10050.585186	0.091110	0.265522	1855.096558
10050.586076	0.091208	0.265522	1936.272095
10050.587018	0.091187	0.265522	2022.169800
10051.618250	1.220460	0.267383	534.561584
10051.619233	0.584509	0.267383	1109.134155
10051.620148	0.092600	0.267383	1193.863281
10051.621048	0.091267	0.267383	1276.003662
10051.621983	0.091238	0.267383	1361.311035
10051.622890	0.091271	0.267383	1444.093628
10051.623788	0.091278	0.267383	1526.061279
10051.624675	0.091168	0.267383	1606.927490
10051.625619	0.091311	0.267383	1693.125122
10051.626523	0.091238	0.267383	1775.604126
10051.627414	0.091274	0.267383	1856.929687
10051.628324	0.091183	0.267383	1939.906128
10052.691398	1.205002	0.262380	524.176025
10052.692376	0.610089	0.262380	1120.843140
10052.693288	0.092933	0.262380	1205.598389
10052.694180	0.091223	0.262380	1286.969482
10052.695114	0.091311	0.262380	1372.254028
10052.696024	0.091278	0.262380	1455.317139
10052.696927	0.091289	0.262380	1537.751221
10052.697814	0.091340	0.262380	1618.770142
10052.698740	0.091406	0.262380	1703.412354
10052.699636	0.091296	0.262380	1785.213867
10052.700537	0.091216	0.262380	1867.399292
10052.701422	0.091216	0.262380	1948.125244
10053.731858	1.277461	0.266267	651.505066
10053.732778	0.576991	0.266267	1182.336670
10053.733675	0.092655	0.266267	1265.448242
10053.734561	0.091095	0.266267	1346.158447
10053.735498	0.091245	0.266267	1431.655151
10053.736407	0.091194	0.266267	1514.550415
10053.737304	0.091252	0.266267	1596.403809
10053.738229	0.091241	0.266267	1680.802124
10053.739140	0.091329	0.266267	1764.003174
10053.740041	0.091216	0.266267	1846.188599
10053.740932	0.091205	0.266267	1927.452148
10053.741872	0.091300	0.266267	2013.274170
10054.803920	1.201666	0.258762	528.733154
10054.804812	0.730990	0.258762	1180.776245
10054.805763	0.093406	0.258762	1269.605103
10054.806669	0.091069	0.258762	1352.113892
10054.807556	0.091139	0.258762	1432.954102
10054.808458	0.091172	0.258762	1515.191162
10054.809389	0.091252	0.258762	1600.147217
10054.810282	0.091143	0.258762	1681.537598
10054.811170	0.091249	0.258762	1762.566528
10054.812099	0.091190	0.258762	1847.282227
10054.813009	0.091216	0.258762	1930.288574
10054.813912	0.091267	0.258762	2012.702759
10055.848432	1.258872	0.270154	587.893311
10055.849358	0.627740	0.270154	1169.180908
10055.850261	0.093135	0.270154	1253.281616
10055.851146	0.091227	0.270154	1334.017334
10055.852086	0.091252	0.270154	1419.794678
10055.852995	0.091245	0.270154	1502.736450
10055.853887	0.091263	0.270154	1584.143433
10055.854822	0.091249	0.270154	1669.461060
10055.855722	0.091267	0.270154	1751.601440
10055.856619	0.091161	0.270154	1833.372803
10055.857510	0.091238	0.270154	1914.665649
10055.858453	0.091300	0.270154	2000.761597
10056.916442	1.218951	0.261143	550.966003
10056.917332	0.708215	0.261143	1181.277588
10056.918273	0.093344	0.261143	1269.113770
10056.919187	0.091161	0.261143	1352.434814
10056.920087	0.091230	0.261143	1434.542236
10056.920973	0.091176	0.261143	1515.323730
10056.921921	0.091285	0.261143	1601.862305
10056.922830	0.091208	0.261143	1684.770874
10056.923724	0.091285	0.261143	1766.380005
10056.924670	0.091216	0.261143	1852.670166
10056.925571	0.091187	0.261143	1934.829224
10056.926467	0.091230	0.261143	2016.571777
10057.963983	1.209540	0.273732	535.826111
10057.964964	0.602271	0.273732	1126.653564
10057.965867	0.092765	0.273732	1210.420288
10057.966762	0.091208	0.273732	1292.051880
10057.967660	0.091198	0.273732	1373.947266
10057.968609	0.091293	0.273732	1460.584106
10057.969516	0.091146	0.273732	1543.253784
10057.970411	0.091124	0.273732	1624.810059
10057.971337	0.091230	0.273732	1709.289429
10057.972236	0.091194	0.273732	1791.272705
10057.973130	0.091260	0.273732	1872.858887
10057.974016	0.091154	0.273732	1953.620972
10059.028981	1.251888	0.263081	587.135681
10059.029903	0.632966	0.263081	1170.730713
10059.030836	0.092728	0.263081	1257.246216
10059.031728	0.091187	0.263081	1338.584595
10059.032681	0.091168	0.263081	1425.467896
10059.033577	0.091190	0.263081	1507.174316
10059.034461	0.091176	0.263081	1587.773437
10059.035396	0.091241	0.263081	1673.084229
10059.036302	0.091150	0.263081	1755.666016
10059.037220	0.091183	0.263081	1839.371826
10059.038115	0.091161	0.263081	1920.960815
10059.039062	0.091176	0.263081	2007.304077
10060.079563	1.195810	0.269292	522.569153
10060.080458	0.735989	0.269292	1181.279053
10060.081441	0.093010	0.269292	1272.708130
10060.082338	0.091198	0.269292	1354.512329
10060.083232	0.091223	0.269292	1436.065796
10060.084131	0.091198	0.269292	1518.052368
10060.085050	0.091256	0.269292	1601.916748
10060.085954	0.091201	0.269292	1684.362549
10060.086852	0.091304	0.269292	1766.353271
10060.087778	0.091249	0.269292	1850.849609
10060.088683	0.091311	0.269292	1933.486084
10060.089588	0.091077	0.269292	2015.910522
10061.140426	1.205691	0.260986	528.092590
10061.141387	0.626840	0.260986	1130.485474
10061.142311	0.092952	0.260986	1216.372803
10061.143208	0.091249	0.260986	1298.222900
10061.144140	0.091216	0.260986	1383.236084
10061.145052	0.091223	0.260986	1466.431641
10061.145954	0.091073	0.260986	1548.579468
10061.146843	0.091062	0.260986	1629.533569
10061.147778	0.091311	0.260986	1714.909424
10061.148680	0.091241	0.260986	1797.209229
10061.149570	0.091241	0.260986	1878.414062
10061.150460	0.091117	0.260986	1959.508179
10062.196183	1.208577	0.275274	537.816589
10062.197073	0.712936	0.275274	1172.329346
10062.198016	0.093322	0.275274	1260.331543
10062.198934	0.091219	0.275274	1344.071045
10062.199830	0.091168	0.275274	1425.757812
10062.200766	0.091201	0.275274	1511.122070
10062.201664	0.091285	0.275274	1593.096313
10062.202561	0.091055	0.275274	1674.772339
10062.203450	0.091157	0.275274	1755.811157
10062.204402	0.091124	0.275274	1842.561523
10062.205314	0.091260	0.275274	1925.790405
10062.206213	0.091230	0.275274	2007.806641
10063.253958	1.196580	0.267097	520.512085
10063.254925	0.675146	0.267097	1173.378662
10063.255832	0.093153	0.267097	1257.868530
10063.256753	0.091102	0.267097	1341.773682
10063.257642	0.091293	0.267097	1422.932861
10063.258584	0.091263	0.267097	1508.902954
10063.259495	0.091161	0.267097	1591.950562
10063.260409	0.091132	0.267097	1675.244873
10063.261296	0.091216	0.267097	1756.153320
10063.262252	0.091117	0.267097	1843.261108
10063.263153	0.091146	0.267097	1925.383911
10063.264042	0.091241	0.267097	2006.497559
10064.310780	1.265753	0.275923	617.687561
10064.311705	0.601205	0.275923	1173.802002
10064.312607	0.092893	0.275923	1257.591553
10064.313495	0.091260	0.275923	1338.630249
10064.314448	0.091373	0.275923	1425.708984
10064.315350	0.091245	0.275923	1508.012085
10064.316242	0.091216	0.275923	1589.376587
10064.317162	0.091271	0.275923	1673.345703
10064.318076	0.091395	0.275923	1756.880981
10064.318987	0.091300	0.275923	1840.055298
10064.319885	0.091212	0.275923	1921.963867
10064.320828	0.091124	0.275923	2007.894043
10065.367514	1.220933	0.262533	539.652222
10065.368436	0.677904	0.262533	1164.679687
10065.369336	0.093655	0.262533	1248.968994
10065.370223	0.091150	0.262533	1329.818970
10065.371169	0.091300	0.262533	1416.188843
10065.372073	0.091212	0.262533	1498.644653
10065.372963	0.091150	0.262533	1579.768066
10065.373896	0.091340	0.262533	1664.988647
10065.374798	0.091282	0.262533	1747.324829
10065.375692	0.091227	0.262533	1828.881592
10065.376582	0.091190	0.262533	1910.040894
10065.377517	0.091263	0.262533	1995.372192
10066.424285	1.220043	0.271766	544.139038
10066.425206	0.682782	0.271766	1172.981201
10066.426106	0.093735	0.271766	1257.343018
10066.427047	0.091263	0.271766	1343.221924
10066.427956	0.091249	0.271766	1426.167114
10066.428857	0.091161	0.271766	1508.303101
10066.429742	0.091234	0.271766	1589.045288
10066.430691	0.091238	0.271766	1675.630005
10066.431596	0.091205	0.271766	1758.170410
10066.432495	0.091080	0.271766	1840.051636
10066.433379	0.091285	0.271766	1920.747925
10066.434310	0.091146	0.271766	2005.605103
10067.482077	1.228271	0.262553	558.863525
10067.482973	0.698591	0.262553	1184.801270
10067.483926	0.093329	0.262553	1273.743652
10067.484829	0.091230	0.262553	1356.124756
10067.485725	0.091208	0.262553	1437.847534
10067.486612	0.091172	0.262553	1518.717041
10067.487562	0.091285	0.262553	1605.438232
10067.488470	0.091205	0.262553	1688.252197
10067.489366	0.091227	0.262553	1769.991455
10067.490289	0.091205	0.262553	1854.173462
10067.491190	0.091146	0.262553	1936.296265
10067.492087	0.091055	0.262553	2017.972290
10068.537859	1.269170	0.275995	628.239136
10068.538783	0.607471	0.275995	1189.541992
10068.539676	0.093018	0.275995	1272.606689
10068.540610	0.091219	0.275995	1357.805664
10068.541525	0.091271	0.275995	1441.318359
10068.542414	0.091219	0.275995	1522.412476
10068.543303	0.091187	0.275995	1603.477295
10068.544242	0.091271	0.275995	1689.180542
10068.545151	0.091245	0.275995	1772.122314
10068.546048	0.091307	0.275995	1854.025024
10068.546934	0.091183	0.275995	1934.812988
10068.547889	0.091249	0.275995	2021.955566
10069.597642	1.202736	0.266408	523.189941
10069.598545	0.732019	0.266408	1184.203125
10069.599432	0.094856	0.266408	1268.340332
10069.600398	0.091296	0.266408	1356.532593
10069.601294	0.091121	0.266408	1438.176636
10069.602194	0.091289	0.266408	1520.336792
10069.603079	0.091113	0.266408	1600.972046
10069.604020	0.091333	0.266408	1686.916382
10069.604918	0.091208	0.266408	1768.821655
10069.605816	0.091219	0.266408	1850.736816
10069.606744	0.091282	0.266408	1935.446289
10069.607650	0.091366	0.266408	2018.223877
10070.649284	1.196030	0.277574	521.469177
10070.650250	0.620522	0.277574	1120.893799
10070.651155	0.092941	0.277574	1205.005127
10070.652057	0.091234	0.277574	1287.298340
10070.652945	0.091274	0.277574	1368.349976
10070.653889	0.091300	0.277574	1454.537231
10070.654793	0.091183	0.277574	1536.966553
10070.655686	0.091165	0.277574	1618.376465
10070.656630	0.091241	0.277574	1704.508423
10070.657526	0.091311	0.277574	1786.323120
10070.658421	0.091274	0.277574	1868.013672
10070.659309	0.091135	0.277574	1948.941772
10071.713291	1.252811	0.263794	632.669739
10071.714221	0.574816	0.263794	1167.248291
10071.715121	0.092706	0.263794	1250.683960
10071.716008	0.091194	0.263794	1331.572876
10071.716938	0.091315	0.263794	1416.495605
10071.717841	0.091154	0.263794	1498.807251
10071.718744	0.091263	0.263794	1581.218140
10071.719647	0.091238	0.263794	1663.605835
10071.720579	0.091190	0.263794	1748.595093
10071.721483	0.091135	0.263794	1830.981323
10071.722375	0.091128	0.263794	1912.267456
10071.723318	0.091205	0.263794	1998.273560
10072.761819	1.219193	0.277184	546.198486
10072.762712	0.707966	0.277184	1178.412354
10072.763668	0.093248	0.277184	1267.557739
10072.764577	0.091073	0.277184	1350.343140
10072.765467	0.091165	0.277184	1431.479614
10072.766397	0.091121	0.277184	1516.221802
10072.767300	0.091293	0.277184	1598.659180
10072.768199	0.091106	0.277184	1680.563477
10072.769088	0.091201	0.277184	1761.641357
10072.770064	0.091271	0.277184	1850.721558
10072.770957	0.091289	0.277184	1932.242676
10072.771854	0.091139	0.277184	2013.994263
10073.830879	1.234197	0.265091	556.622742
10073.831798	0.660791	0.265091	1163.889648
10073.832734	0.092871	0.265091	1250.817017
10073.833624	0.091208	0.265091	1331.992554
10073.834587	0.091146	0.265091	1419.766357
10073.835487	0.091311	0.265091	1501.946289
10073.836376	0.091205	0.265091	1583.027344
10073.837323	0.091282	0.265091	1669.471191
10073.838223	0.091099	0.265091	1751.459961
10073.839136	0.091201	0.265091	1834.726685
10073.840038	0.091249	0.265091	1917.033081
10073.840968	0.091227	0.265091	2001.874023
10074.873310	1.216765	0.280596	539.026917
10074.874238	0.676036	0.280596	1166.388672
10074.875134	0.093783	0.280596	1250.418213
10074.876054	0.091260	0.280596	1334.377197
10074.876974	0.091355	0.280596	1418.423828
10074.877879	0.091194	0.280596	1500.954224
10074.878769	0.091190	0.280596	1582.113525
10074.879699	0.091373	0.280596	1667.090698
10074.880591	0.091282	0.280596	1748.514038
10074.881491	0.091230	0.280596	1830.621460
10074.882380	0.091157	0.280596	1911.660278
10074.883324	0.091381	0.280596	1997.923584
10075.946463	1.224346	0.272398	548.506836
10075.947390	0.668467	0.272398	1168.175537
10075.948286	0.093651	0.272398	1252.086914
10075.949173	0.091128	0.272398	1332.917358
10075.950122	0.091212	0.272398	1419.477661
10075.951032	0.091077	0.272398	1502.357422
10075.951928	0.091146	0.272398	1584.024414
10075.952855	0.091165	0.272398	1668.533936
10075.953758	0.091238	0.272398	1750.921631
10075.954661	0.091216	0.272398	1833.289551
10075.955553	0.091249	0.272398	1914.683472
10075.956490	0.091252	0.272398	2000.187012
10076.986843	1.217692	0.276954	541.872803
10076.987772	0.682211	0.276954	1175.646484
10076.988659	0.093831	0.276954	1258.874146
10076.989591	0.091219	0.276954	1343.890747
10076.990495	0.091256	0.276954	1426.386230
10076.991397	0.091124	0.276954	1508.580322
10076.992283	0.091110	0.276954	1589.303467
10076.993235	0.091300	0.276954	1676.221069
10076.994140	0.091124	0.276954	1758.688477
10076.995035	0.091183	0.276954	1840.297119
10076.995968	0.091212	0.276954	1925.398071
10076.996871	0.091285	0.276954	2007.828735
10078.059985	1.210294	0.270839	534.950073
10078.060911	0.683789	0.270839	1168.138672
10078.061809	0.093915	0.270839	1252.474121
10078.062745	0.091176	0.270839	1337.814453
10078.063645	0.091212	0.270839	1419.905396
10078.064545	0.091187	0.270839	1501.973267
10078.065433	0.091190	0.270839	1582.950195
10078.066367	0.091260	0.270839	1668.186768
10078.067277	0.091165	0.270839	1751.146484
10078.068173	0.091143	0.270839	1832.810181
10078.069090	0.091223	0.270839	1916.461792
10078.070009	0.091267	0.270839	2000.336304
10079.102412	1.211733	0.280100	534.374390
10079.103389	0.591874	0.280100	1112.635132
10079.104294	0.092688	0.280100	1196.517822
10079.105183	0.091227	0.280100	1277.618408
10079.106105	0.091146	0.280100	1361.655273
10079.107014	0.091234	0.280100	1444.587036
10079.107914	0.091128	0.280100	1526.602173
10079.108800	0.091223	0.280100	1607.425903
10079.109722	0.091267	0.280100	1691.574219
10079.110629	0.091143	0.280100	1774.240479
10079.111530	0.091183	0.280100	1856.396240
10079.112421	0.091223	0.280100	1937.676025
10080.173534	1.217776	0.274867	541.910278
10080.174433	0.707417	0.274867	1177.878174
10080.175348	0.093845	0.274867	1263.746582
10080.176258	0.091179	0.274867	1346.719604
10080.177204	0.091212	0.274867	1433.006348
10080.178102	0.091161	0.274867	1514.868774
10080.178995	0.091187	0.274867	1596.298340
10080.179926	0.091190	0.274867	1681.196411
10080.180831	0.091161	0.274867	1763.697021
10080.181751	0.091132	0.274867	1847.538086
10080.182640	0.091307	0.274867	1928.710327
10080.183582	0.091187	0.274867	2014.608032
10081.216985	1.219860	0.274392	550.156738
10081.217881	0.707421	0.274392	1184.005615
10081.218821	0.094208	0.274392	1272.560913
10081.219734	0.091073	0.274392	1355.710571
10081.220642	0.091157	0.274392	1438.481323
10081.221536	0.091208	0.274392	1520.021729
10081.222467	0.091252	0.274392	1604.977783
10081.223369	0.091260	0.274392	1687.294067
10081.224272	0.091212	0.274392	1769.658691
10081.225160	0.091212	0.274392	1850.655029
10081.226110	0.091187	0.274392	1937.282227
10081.227020	0.091143	0.274392	2020.221924
10082.283997	1.219149	0.277615	543.740540
10082.284893	0.713339	0.277615	1182.891846
10082.285861	0.093047	0.277615	1272.961182
10082.286760	0.091113	0.277615	1354.872070
10082.287661	0.091198	0.277615	1437.041016
10082.288550	0.091176	0.277615	1518.096069
10082.289481	0.091179	0.277615	1602.983887
10082.290387	0.091219	0.277615	1685.628784
10082.291279	0.091238	0.277615	1767.012939
10082.292206	0.091307	0.277615	1851.654907
10082.293111	0.091234	0.277615	1934.221802
10082.294012	0.091234	0.277615	2016.423706
10083.333589	1.216655	0.268559	546.278259
10083.334492	0.706198	0.268559	1183.974609
10083.335426	0.094156	0.268559	1271.916748
10083.336333	0.091208	0.268559	1354.642822
10083.337230	0.091168	0.268559	1436.420654
10083.338116	0.091190	0.268559	1517.215210
10083.339058	0.091234	0.268559	1603.157715
10083.339963	0.091208	0.268559	1685.701416
10083.340862	0.091102	0.268559	1767.602417
10083.341746	0.091212	0.268559	1848.234009
10083.342685	0.091121	0.268559	1933.796265
10083.343594	0.091154	0.268559	2016.654907
10084.395532	1.294633	0.278988	652.494812
10084.396453	0.572783	0.278988	1180.028076
10084.397356	0.092501	0.278988	1263.556641
10084.398246	0.091212	0.278988	1344.735474
10084.399193	0.091219	0.278988	1431.120361
10084.400102	0.091132	0.278988	1513.958984
10084.400998	0.091212	0.278988	1595.685059
10084.401934	0.091245	0.278988	1681.090454
10084.402837	0.091245	0.278988	1763.484741
10084.403732	0.091058	0.278988	1844.981934
10084.404618	0.091172	0.278988	1925.760254
10084.405557	0.091285	0.278988	2011.477295
10085.452251	1.215659	0.270771	537.321350
10085.453172	0.686103	0.270771	1169.222656
10085.454072	0.093691	0.270771	1253.544922
10085.455000	0.091187	0.270771	1338.166016
10085.455924	0.091322	0.270771	1422.547607
10085.456831	0.091139	0.270771	1505.210571
10085.457724	0.091179	0.270771	1586.633545
10085.458644	0.091238	0.270771	1670.572266
10085.459545	0.091198	0.270771	1752.741211
10085.460444	0.091135	0.270771	1834.671753
10085.461331	0.091205	0.270771	1915.570435
10085.462262	0.091194	0.270771	2000.471924
10086.504916	1.200820	0.282187	524.758484
10086.505867	0.697313	0.282187	1187.903320
10086.506778	0.093234	0.282187	1272.839111
10086.507668	0.091230	0.282187	1354.034180
10086.508560	0.091194	0.282187	1435.379150
10086.509487	0.091252	0.282187	1519.970215
10086.510401	0.091124	0.282187	1603.257812
10086.511327	0.091113	0.282187	1687.628662
10086.512214	0.091219	0.282187	1768.540283
10086.513161	0.091165	0.282187	1854.873169
10086.514052	0.091124	0.282187	1936.064941
10086.514941	0.091088	0.282187	2017.041870
10087.569879	1.217717	0.273743	546.755066
10087.570781	0.705820	0.273743	1183.405029
10087.571716	0.094127	0.273743	1271.413940
10087.572607	0.091234	0.273743	1352.703491
10087.573507	0.091179	0.273743	1434.764771
10087.574393	0.091208	0.273743	1515.575439
10087.575336	0.091230	0.273743	1601.605713
10087.576241	0.091154	0.273743	1684.099731
10087.577144	0.091187	0.273743	1766.441162
10087.578049	0.091223	0.273743	1848.998047
10087.578978	0.091304	0.273743	1933.819214
10087.579881	0.091073	0.273743	2016.058105
10088.616407	1.218351	0.279645	548.257874
10088.617309	0.704989	0.279645	1184.157959
10088.618252	0.094138	0.279645	1272.930298
10088.619154	0.091282	0.279645	1355.266479
10088.620051	0.091179	0.279645	1437.054199
10088.620942	0.091183	0.279645	1518.298096
10088.621869	0.091307	0.279645	1602.940063
10088.622770	0.091208	0.279645	1685.118896
10088.623670	0.091146	0.279645	1767.150513
10088.624558	0.091135	0.279645	1848.078613
10088.625514	0.091307	0.279645	1935.368408
10088.626422	0.091055	0.279645	2018.046021
10089.686485	1.216919	0.270819	545.179687
10089.687380	0.715865	0.270819	1185.879395
10089.688324	0.093614	0.270819	1274.251465
10089.689241	0.091230	0.270819	1357.909790
10089.690148	0.091241	0.270819	1440.665771
10089.691036	0.091143	0.270819	1521.600342
10089.692001	0.091234	0.270819	1609.641235
10089.692907	0.091176	0.270819	1692.246338
10089.693800	0.091201	0.270819	1773.688965
10089.694740	0.091179	0.270819	1859.397461
10089.695635	0.091230	0.270819	1941.048706
10089.696530	0.091106	0.270819	2022.588501
10090.728923	1.230839	0.290413	552.646545
10090.729838	0.682548	0.290413	1177.177490
10090.730729	0.093896	0.290413	1260.839233
10090.731660	0.091172	0.290413	1345.720215
10090.732576	0.091150	0.290413	1429.213501
10090.733491	0.091201	0.290413	1512.662598
10090.734379	0.091198	0.290413	1593.645996
10090.735351	0.091238	0.290413	1682.329102
10090.736254	0.091135	0.290413	1764.624268
10090.737153	0.091183	0.290413	1846.597656
10090.738037	0.091176	0.290413	1927.196777
10090.738968	0.091201	0.290413	2012.105103
10091.804109	1.203889	0.275927	528.507385
10091.805003	0.725918	0.275927	1177.478027
10091.805968	0.093256	0.275927	1267.469727
10091.806862	0.090996	0.275927	1348.820190
10091.807750	0.091143	0.275927	1429.754761
10091.808693	0.091176	0.275927	1515.733276
10091.809588	0.091146	0.275927	1597.309204
10091.810505	0.091227	0.275927	1680.964233
10091.811398	0.091205	0.275927	1762.410156
10091.812352	0.091282	0.275927	1849.492920
10091.813257	0.091139	0.275927	1931.973633
10091.814178	0.091110	0.275927	2015.885620
10092.840396	1.208855	0.284556	530.687378
10092.841371	0.608437	0.284556	1123.913940
10092.842274	0.092882	0.284556	1207.786499
10092.843169	0.091157	0.284556	1289.372192
10092.844079	0.091176	0.284556	1372.341919
10092.844976	0.091216	0.284556	1454.162476
10092.845917	0.091183	0.284556	1539.965576
10092.846833	0.091223	0.284556	1623.526001
10092.847750	0.091161	0.284556	1707.120483
10092.848638	0.091176	0.284556	1788.084351
10092.849594	0.091154	0.284556	1875.227173
10092.850516	0.091139	0.284556	1959.257202
10093.918676	1.217443	0.272233	542.979431
10093.919584	0.703901	0.272233	1182.121826
10093.920477	0.094351	0.272233	1266.376953
10093.921441	0.091234	0.272233	1354.326660
10093.922350	0.091289	0.272233	1437.308472
10093.923251	0.091201	0.272233	1519.480713
10093.924173	0.091304	0.272233	1603.662720
10093.925082	0.091143	0.272233	1686.511353
10093.925992	0.091121	0.272233	1769.431152
10093.926881	0.091172	0.272233	1850.482910
10093.927805	0.091190	0.272233	1934.742676
10093.928717	0.091168	0.272233	2017.888062
10094.954968	1.223342	0.290993	546.833984
10094.955894	0.677487	0.290993	1174.186523
10094.956794	0.093662	0.290993	1258.482422
10094.957735	0.091285	0.290993	1344.381958
10094.958639	0.091223	0.290993	1426.847656
10094.959545	0.091230	0.290993	1509.502441
10094.960436	0.091135	0.290993	1590.703979
10094.961380	0.091307	0.290993	1676.898193
10094.962291	0.091165	0.290993	1759.949097
10094.963180	0.091311	0.290993	1841.124634
10094.964105	0.091198	0.290993	1925.482300
10094.965012	0.091300	0.290993	2008.291504
10096.034309	1.279761	0.278682	637.320862
10096.035227	0.599019	0.278682	1187.219971
10096.036126	0.092904	0.278682	1270.740723
10096.037011	0.091128	0.278682	1351.388916
10096.037965	0.091260	0.278682	1438.450684
10096.038864	0.091183	0.278682	1520.424072
10096.039759	0.091157	0.278682	1602.009766
10096.040693	0.091194	0.278682	1687.184814
10096.041596	0.091333	0.278682	1769.658569
10096.042504	0.091274	0.278682	1852.535767
10096.043403	0.091183	0.278682	1934.509155
10096.044329	0.091318	0.278682	2019.069946
10097.067532	1.279211	0.281965	644.722534
10097.068455	0.582865	0.281965	1182.706909
10097.069349	0.092794	0.281965	1265.664917
10097.070234	0.091190	0.281965	1346.368164
10097.071167	0.091296	0.281965	1431.547729
10097.072076	0.091198	0.281965	1514.446289
10097.072972	0.091179	0.281965	1596.142822
10097.073895	0.091307	0.281965	1680.419556
10097.074806	0.091198	0.281965	1763.500488
10097.075712	0.091198	0.281965	1846.125488
10097.076606	0.091179	0.281965	1927.639648
10097.077540	0.091293	0.281965	2012.907104
10098.147808	1.233160	0.276499	554.922180
10098.148733	0.665310	0.276499	1170.333984
10098.149628	0.093556	0.276499	1254.066528
10098.150550	0.091285	0.276499	1338.231689
10098.151450	0.091219	0.276499	1420.329224
10098.152357	0.091187	0.276499	1503.035400
10098.153243	0.091143	0.276499	1583.787720
10098.154191	0.091168	0.276499	1670.215210
10098.155093	0.091194	0.276499	1752.472046
10098.155991	0.091205	0.276499	1834.374023
10098.156876	0.091194	0.276499	1915.080566
10098.157823	0.091234	0.276499	2001.479248
10099.182037	1.216937	0.289426	542.753967
10099.182939	0.707190	0.289426	1180.639282
10099.183878	0.094259	0.289426	1269.148560
10099.184783	0.091208	0.289426	1351.692261
10099.185685	0.091274	0.289426	1434.021729
10099.186575	0.091198	0.289426	1515.187500
10099.187522	0.091212	0.289426	1601.565430
10099.188420	0.091208	0.289426	1683.470703
10099.189314	0.091157	0.289426	1764.965210
10099.190216	0.091260	0.289426	1847.281494
10099.191145	0.091344	0.289426	1932.140015
10099.192045	0.091234	0.289426	2014.250732
10100.262379	1.230974	0.284145	573.633911
10100.263318	0.625056	0.284145	1160.561646
10100.264205	0.093201	0.284145	1243.230713
10100.265164	0.091113	0.284145	1330.608398
10100.266057	0.091194	0.284145	1412.044556
10100.266946	0.091106	0.284145	1493.037720
10100.267882	0.091121	0.284145	1578.326660
10100.268792	0.091036	0.284145	1661.169800
10100.269712	0.091161	0.284145	1745.037842
10100.270611	0.091176	0.284145	1827.004639
10100.271561	0.091139	0.284145	1913.586670
10100.272468	0.091117	0.284145	1996.229736
10101.295570	1.207613	0.284121	533.765137
10101.296462	0.719930	0.284121	1175.943115
10101.297411	0.093409	0.284121	1264.588623
10101.298327	0.091205	0.284121	1348.132202
10101.299218	0.091161	0.284121	1429.356567
10101.300143	0.091230	0.284121	1513.744751
10101.301051	0.091263	0.284121	1596.611938
10101.301957	0.091176	0.284121	1679.217041
10101.302852	0.091176	0.284121	1760.819092
10101.303788	0.091150	0.284121	1846.135376
10101.304686	0.091245	0.284121	1928.073486
10101.305581	0.091187	0.284121	2009.685425
10102.374867	1.211814	0.280539	540.468994
10102.375767	0.713236	0.280539	1182.381348
10102.376700	0.094501	0.280539	1270.550537
10102.377618	0.091212	0.280539	1354.283325
10102.378529	0.091183	0.280539	1437.350952
10102.379422	0.091176	0.280539	1518.770752
10102.380352	0.091278	0.280539	1603.659424
10102.381256	0.091208	0.280539	1686.111938
10102.382147	0.091227	0.280539	1767.395020
10102.383035	0.091252	0.280539	1848.427246
10102.383971	0.091296	0.280539	1933.880615
10102.384872	0.091128	0.280539	2015.986938
10103.410171	1.253097	0.290659	612.764404
10103.411094	0.602673	0.290659	1169.031982
10103.411998	0.092904	0.290659	1253.017212
10103.412885	0.091132	0.290659	1333.850952
10103.413825	0.091285	0.290659	1419.659180
10103.414733	0.091157	0.290659	1502.429932
10103.415623	0.091304	0.290659	1583.690186
10103.416537	0.091157	0.290659	1667.007935
10103.417459	0.091300	0.290659	1751.186523
10103.418368	0.091208	0.290659	1834.095093
10103.419265	0.091267	0.290659	1915.961670
10103.420193	0.091201	0.290659	2000.596313
10104.490462	1.220563	0.282698	545.591553
10104.491383	0.681870	0.282698	1173.593994
10104.492273	0.093845	0.282698	1257.116211
10104.493218	0.091194	0.282698	1343.294434
10104.494123	0.091282	0.282698	1425.904419
10104.495024	0.091080	0.282698	1507.967773
10104.495912	0.091161	0.282698	1588.918701
10104.496876	0.091318	0.282698	1676.949585
10104.497784	0.091278	0.282698	1759.830078
10104.498685	0.091157	0.282698	1841.962769
10104.499570	0.091285	0.282698	1922.750366
10104.500514	0.091300	0.282698	2008.937622
10105.524711	1.241129	0.287025	575.883850
10105.525608	0.683207	0.287025	1188.720337
10105.526546	0.093776	0.287025	1276.681885
10105.527454	0.091241	0.287025	1359.529175
10105.528349	0.091179	0.287025	1441.134521
10105.529239	0.091172	0.287025	1522.277466
10105.530183	0.091208	0.287025	1608.378296
10105.531079	0.091146	0.287025	1690.045288
10105.531977	0.091121	0.287025	1771.871582
10105.532862	0.091077	0.287025	1852.474487
10105.533790	0.091154	0.287025	1937.064941
10105.534690	0.091033	0.287025	2018.994385
10106.603984	1.216113	0.281981	539.954285
10106.604892	0.710131	0.281981	1184.752930
10106.605779	0.094508	0.281981	1268.581543
10106.606753	0.091249	0.281981	1357.457886
10106.607649	0.091234	0.281981	1439.203613
10106.608550	0.091219	0.281981	1521.392334
10106.609438	0.091337	0.281981	1602.499268
10106.610362	0.091366	0.281981	1686.921387
10106.611277	0.091113	0.281981	1770.290039
10106.612170	0.091128	0.281981	1851.667236
10106.613106	0.091183	0.281981	1937.014404
10106.614010	0.091282	0.281981	2019.533081
10107.639237	1.194807	0.289273	517.351440
10107.640183	0.669016	0.289273	1150.240723
10107.641095	0.093289	0.289273	1235.319946
10107.641985	0.091157	0.289273	1316.449829
10107.642872	0.091223	0.289273	1397.364746
10107.643811	0.091198	0.289273	1482.999268
10107.644706	0.091285	0.289273	1564.699707
10107.645595	0.091278	0.289273	1645.845947
10107.646493	0.091278	0.289273	1727.813721
10107.647435	0.091234	0.289273	1813.756226
10107.648342	0.091106	0.289273	1896.389282
10107.649233	0.091183	0.289273	1977.633179
10108.718544	1.204984	0.284000	530.192993
10108.719435	0.733488	0.284000	1183.730469
10108.720395	0.093453	0.284000	1273.445679
10108.721294	0.091176	0.284000	1355.412476
10108.722185	0.091172	0.284000	1436.646606
10108.723100	0.091157	0.284000	1520.055420
10108.724027	0.091187	0.284000	1604.585327
10108.724930	0.091212	0.284000	1686.949951
10108.725815	0.091260	0.284000	1767.714844
10108.726759	0.091260	0.284000	1853.864014
10108.727664	0.091157	0.284000	1936.361328
10108.728556	0.091088	0.284000	2017.611572
10109.752775	1.196008	0.291879	519.067627
10109.753708	0.685605	0.291879	1158.737549
10109.754620	0.093373	0.291879	1243.893555
10109.755536	0.091066	0.291879	1327.309692
10109.756431	0.091139	0.291879	1408.879028
10109.757400	0.091208	0.291879	1497.260010
10109.758306	0.091179	0.291879	1579.868408
10109.759192	0.091128	0.291879	1660.607788
10109.760107	0.091132	0.291879	1743.993164
10109.761025	0.091124	0.291879	1827.645264
10109.761924	0.091230	0.291879	1909.661499
10109.762811	0.091187	0.291879	1990.543945
10110.833093	1.206951	0.290042	525.023560
10110.834097	0.558248	0.290042	1085.504883
10110.834998	0.092395	0.290042	1168.752808
10110.835888	0.091198	0.290042	1249.918579
10110.836818	0.091252	0.290042	1334.783325
10110.837738	0.091128	0.290042	1418.620972
10110.838656	0.091044	0.290042	1502.199097
10110.839539	0.091066	0.290042	1582.610107
10110.840472	0.091267	0.290042	1667.762329
10110.841378	0.091135	0.290042	1750.330811
10110.842296	0.091121	0.290042	1833.979492
10110.843182	0.091110	0.290042	1914.702637
10111.866337	1.229165	0.285591	553.124268
10111.867269	0.658213	0.285591	1166.578613
10111.868159	0.093519	0.285591	1249.810791
10111.869090	0.091077	0.285591	1334.603149
10111.869989	0.091241	0.285591	1416.629272
10111.870893	0.091143	0.285591	1499.022217
10111.871793	0.091205	0.285591	1581.106567
10111.872722	0.091194	0.285591	1665.825684
10111.873633	0.091183	0.285591	1748.893311
10111.874534	0.091194	0.285591	1831.058960
10111.875420	0.091110	0.285591	1911.782104
10111.876360	0.091219	0.285591	1997.528442
10112.946648	1.221551	0.284624	542.368835
10112.947563	0.692582	0.284624	1176.081299
10112.948452	0.094116	0.284624	1259.750610
10112.949395	0.091234	0.284624	1345.784424
10112.950303	0.091278	0.284624	1428.664917
10112.951207	0.091080	0.284624	1511.001465
10112.952093	0.091165	0.284624	1591.773193
10112.953036	0.091234	0.284624	1677.807007
10112.953940	0.091135	0.284624	1760.193237
10112.954837	0.091165	0.284624	1841.967896
10112.955778	0.091271	0.284624	1927.853638
10112.956674	0.091176	0.284624	2009.546875
10113.981899	1.213154	0.294485	535.000977
10113.982879	0.589728	0.294485	1112.934204
10113.983793	0.092549	0.294485	1197.523804
10113.984690	0.091179	0.294485	1279.311523
10113.985616	0.091179	0.294485	1363.743408
10113.986519	0.091183	0.294485	1446.081543
10113.987413	0.091113	0.294485	1527.536865
10113.988301	0.091135	0.294485	1608.464966
10113.989252	0.091245	0.294485	1695.239014
10113.990143	0.091095	0.294485	1776.404663
10113.991043	0.091187	0.294485	1858.472534
10113.991930	0.091106	0.294485	1939.283569
10115.060193	1.234266	0.281881	566.528198
10115.061099	0.684141	0.281881	1186.359619
10115.062019	0.094028	0.281881	1272.865723
10115.062951	0.091168	0.281881	1357.834473
10115.063859	0.091194	0.281881	1440.638428
10115.064747	0.091227	0.281881	1521.647827
10115.065673	0.091234	0.281881	1606.130615
10115.066579	0.091271	0.281881	1688.821899
10115.067478	0.091139	0.281881	1770.755737
10115.068366	0.091124	0.281881	1851.674072
10115.069309	0.091234	0.281881	1937.707886
10115.070211	0.091234	0.281881	2020.001099
10116.096535	1.295636	0.296153	668.548218
10116.097453	0.576595	0.296153	1197.862793
10116.098340	0.092615	0.296153	1280.012085
10116.099291	0.091150	0.296153	1366.695679
10116.100190	0.091102	0.296153	1448.596680
10116.101089	0.091077	0.296153	1530.474609
10116.101980	0.091110	0.296153	1611.653320
10116.102910	0.091117	0.296153	1696.392090
10116.103831	0.091168	0.296153	1780.358032
10116.104730	0.091161	0.296153	1862.311646
10116.105617	0.091161	0.296153	1943.171387
10116.106560	0.091154	0.296153	2029.129150
10117.173729	1.234944	0.285357	556.959656
10117.174644	0.678699	0.285357	1177.968994
10117.175533	0.093809	0.285357	1261.364868
10117.176461	0.091084	0.285357	1345.890747
10117.177402	0.091146	0.285357	1431.659302
10117.178323	0.091176	0.285357	1515.631958
10117.179216	0.091165	0.285357	1597.041870
10117.180169	0.091172	0.285357	1683.928711
10117.181073	0.091190	0.285357	1766.364624
10117.181993	0.091113	0.285357	1850.188843
10117.182875	0.091172	0.285357	1930.602417
10117.183809	0.091150	0.285357	2015.736450
10118.212100	1.279380	0.293152	633.293030
10118.213025	0.580829	0.293152	1170.559692
10118.213933	0.092560	0.293152	1254.604004
10118.214819	0.091117	0.293152	1335.333618
10118.215777	0.091293	0.293152	1422.791992
10118.216683	0.091121	0.293152	1505.347290
10118.217576	0.091198	0.293152	1586.786621
10118.218513	0.091252	0.293152	1672.290161
10118.219417	0.091296	0.293152	1754.822144
10118.220313	0.091069	0.293152	1836.420288
10118.221205	0.091187	0.293152	1917.758667
10118.222138	0.091205	0.293152	2002.852783
10119.286235	1.224847	0.285168	547.506775
10119.287138	0.701818	0.285168	1181.248047
10119.288022	0.094449	0.285168	1264.741333
10119.288972	0.091274	0.285168	1351.452026
10119.289877	0.091256	0.285168	1434.038818
10119.290773	0.091245	0.285168	1515.794434
10119.291697	0.091219	0.285168	1600.081299
10119.292609	0.091333	0.285168	1683.376953
10119.293514	0.091135	0.285168	1765.854370
10119.294415	0.091260	0.285168	1848.079468
10119.295351	0.091260	0.285168	1933.498657
10119.296246	0.091194	0.285168	2015.117187
10120.327628	1.205962	0.294928	527.005371
10120.328599	0.617783	0.294928	1126.872803
10120.329517	0.092974	0.294928	1212.222656
10120.330415	0.091245	0.294928	1294.160767
10120.331298	0.091201	0.294928	1374.691406
10120.332230	0.091337	0.294928	1459.817139
10120.333139	0.091208	0.294928	1542.725708
10120.334038	0.091216	0.294928	1624.728760
10120.334965	0.091307	0.294928	1709.370728
10120.335871	0.091179	0.294928	1791.979126
10120.336768	0.091172	0.294928	1873.760254
10120.337655	0.091271	0.294928	1954.717407
10121.397707	1.204270	0.286610	529.878784
10121.398598	0.729031	0.286610	1179.445190
10121.399576	0.092867	0.286610	1270.269531
10121.400479	0.091183	0.286610	1352.607666
10121.401367	0.091267	0.286610	1433.652832
10121.402281	0.091311	0.286610	1517.111084
10121.403204	0.091238	0.286610	1601.323608
10121.404103	0.091157	0.286610	1683.273926
10121.404990	0.091179	0.286610	1764.149902
10121.405922	0.091150	0.286610	1849.101562
10121.406830	0.091198	0.286610	1931.908936
10121.407753	0.091227	0.286610	2016.111328
10122.444233	1.198228	0.294691	522.427185
10122.445187	0.638774	0.294691	1131.817871
10122.446090	0.093226	0.294691	1216.001221
10122.446992	0.091223	0.294691	1298.284546
10122.447886	0.091252	0.294691	1379.864258
10122.448832	0.091260	0.294691	1466.196045
10122.449740	0.091194	0.294691	1549.000000
10122.450633	0.091146	0.294691	1630.393555
10122.451574	0.091293	0.294691	1716.300049
10122.452475	0.091285	0.294691	1798.548218
10122.453371	0.091293	0.294691	1880.346436
10122.454260	0.091106	0.294691	1961.339600
10123.510221	1.197264	0.288241	522.007263
10123.511114	0.723193	0.288241	1167.818848
10123.512071	0.093647	0.288241	1257.439453
10123.512972	0.091227	0.288241	1339.634766
10123.513869	0.091230	0.288241	1421.468506
10123.514801	0.091274	0.288241	1506.536255
10123.515708	0.091249	0.288241	1589.298950
10123.516611	0.091249	0.288241	1671.696655
10123.517500	0.091267	0.288241	1752.833130
10123.518447	0.091274	0.288241	1839.270020
10123.519355	0.091219	0.288241	1922.097290
10123.520251	0.091208	0.288241	2003.820068
10124.560844	1.210276	0.290868	530.100830
10124.561827	0.596276	0.290868	1116.239746
10124.562735	0.092893	0.290868	1200.586670
10124.563629	0.091183	0.290868	1282.104126
10124.564566	0.091333	0.290868	1367.683105
10124.565467	0.091296	0.290868	1449.941162
10124.566367	0.091194	0.290868	1532.015625
10124.567256	0.091150	0.290868	1613.047852
10124.568192	0.091333	0.290868	1698.535522
10124.569099	0.091208	0.290868	1781.261597
10124.570007	0.091172	0.290868	1864.045654
10124.570894	0.091146	0.290868	1944.892334
10125.619671	1.208599	0.286848	547.495178
10125.620571	0.701078	0.286848	1178.465332
10125.621507	0.094299	0.286848	1266.729492
10125.622423	0.091322	0.286848	1350.380493
10125.623324	0.091230	0.286848	1432.579102
10125.624208	0.091241	0.286848	1513.236572
10125.625139	0.091333	0.286848	1598.267578
10125.626042	0.091139	0.286848	1680.566040
10125.626936	0.091113	0.286848	1762.021362
10125.627824	0.091176	0.286848	1842.985229
10125.628779	0.091333	0.286848	1930.208252
10125.629683	0.091278	0.286848	2012.723633
10126.678485	1.219142	0.295674	538.860718
10126.679413	0.671356	0.295674	1161.879272
10126.680305	0.093809	0.295674	1245.556519
10126.681225	0.091333	0.295674	1329.582886
10126.682130	0.091333	0.295674	1412.239258
10126.683033	0.091205	0.295674	1494.597168
10126.683918	0.091256	0.295674	1575.358765
10126.684865	0.091296	0.295674	1661.816406
10126.685766	0.091249	0.295674	1744.031494
10126.686657	0.091274	0.295674	1825.357056
10126.687584	0.091260	0.295674	1909.954834
10126.688501	0.091278	0.295674	1993.656860
10127.732172	1.218658	0.293374	538.647034
10127.733081	0.705861	0.293374	1180.274292
10127.733969	0.094504	0.293374	1264.194214
10127.734944	0.091241	0.293374	1353.154663
10127.735856	0.091154	0.293374	1436.286743
10127.736753	0.091205	0.293374	1518.097412
10127.737684	0.091234	0.293374	1603.036377
10127.738588	0.091241	0.293374	1685.518677
10127.739481	0.091161	0.293374	1766.925293
10127.740369	0.091234	0.293374	1847.941162
10127.741316	0.091263	0.293374	1934.367676
10127.742211	0.091348	0.293374	2016.123779
10128.795104	1.231044	0.294224	556.431763
10128.796000	0.711680	0.294224	1194.096802
10128.796883	0.094669	0.294224	1277.689697
10128.797848	0.091274	0.294224	1365.769531
10128.798743	0.091271	0.294224	1447.456909
10128.799653	0.091168	0.294224	1530.419922
10128.800539	0.091238	0.294224	1611.256592
10128.801497	0.091355	0.294224	1698.774658
10128.802401	0.091274	0.294224	1781.286743
10128.803303	0.091205	0.294224	1863.553467
10128.804230	0.091373	0.294224	1948.256470
10128.805127	0.091333	0.294224	2030.182129
10129.842642	1.208071	0.291593	535.175537
10129.843537	0.720732	0.291593	1180.231079
10129.844489	0.093442	0.291593	1269.188232
10129.845391	0.091172	0.291593	1351.425293
10129.846277	0.091285	0.291593	1432.304199
10129.847184	0.091296	0.291593	1515.109985
10129.848120	0.091208	0.291593	1600.481201
10129.849030	0.091238	0.291593	1683.507568
10129.849928	0.091230	0.291593	1765.432495
10129.850843	0.091333	0.291593	1849.002197
10129.851744	0.091311	0.291593	1931.273437
10129.852641	0.091241	0.291593	2013.117065
10130.910665	1.208782	0.291742	528.237610
10130.911643	0.595737	0.291742	1110.868652
10130.912550	0.092845	0.291742	1195.079468
10130.913441	0.091216	0.291742	1276.352783
10130.914379	0.091322	0.291742	1362.012817
10130.915288	0.091293	0.291742	1444.997925
10130.916181	0.091216	0.291742	1526.453613
10130.917067	0.091263	0.291742	1607.312988
10130.918012	0.091395	0.291742	1693.681519
10130.918917	0.091315	0.291742	1776.321289
10130.919817	0.091187	0.291742	1858.389160
10130.920710	0.091245	0.291742	1939.871094
10131.955164	1.216318	0.294977	538.829041
10131.956085	0.687015	0.294977	1171.570190
10131.956981	0.093871	0.294977	1255.678467
10131.957916	0.091183	0.294977	1340.934448
10131.958839	0.091135	0.294977	1425.052246
10131.959737	0.091139	0.294977	1506.895020
10131.960624	0.091205	0.294977	1587.793701
10131.961570	0.091179	0.294977	1674.049194
10131.962477	0.091161	0.294977	1756.732178
10131.963385	0.091128	0.294977	1839.476318
10131.964283	0.091084	0.294977	1921.269775
10131.965207	0.091201	0.294977	2005.539673
10133.026251	1.206200	0.288987	528.315552
10133.027237	0.617871	0.288987	1137.536377
10133.028138	0.092813	0.288987	1221.160400
10133.029033	0.091106	0.288987	1302.700195
10133.029921	0.091106	0.288987	1383.602295
10133.030851	0.091285	0.288987	1468.497681
10133.031756	0.091198	0.288987	1551.031494
10133.032650	0.091238	0.288987	1632.598022
10133.033560	0.091223	0.288987	1715.611084
10133.034473	0.091260	0.288987	1798.931274
10133.035383	0.091245	0.288987	1881.964355
10133.036272	0.091212	0.288987	1963.052002
10134.068709	1.232787	0.299553	567.081909
10134.069606	0.696072	0.299553	1191.458252
10134.070550	0.093296	0.299553	1279.529541
10134.071447	0.091143	0.299553	1361.284424
10134.072350	0.091172	0.299553	1443.612671
10134.073237	0.091110	0.299553	1524.426880
10134.074191	0.091183	0.299553	1611.415283
10134.075093	0.091205	0.299553	1693.682007
10134.075994	0.091110	0.299553	1775.771729
10134.076917	0.091187	0.299553	1859.936890
10134.077814	0.091227	0.299553	1941.767334
10134.078707	0.091132	0.299553	2023.147827
10135.141840	1.215927	0.292781	541.087280
10135.142746	0.705040	0.292781	1179.853760
10135.143680	0.093875	0.292781	1267.532593
10135.144590	0.091187	0.292781	1350.512329
10135.145495	0.091183	0.292781	1433.032837
10135.146384	0.091143	0.292781	1514.058594
10135.147324	0.091263	0.292781	1599.846191
10135.148228	0.091216	0.292781	1682.305298
10135.149115	0.091198	0.292781	1763.197510
10135.150038	0.091230	0.292781	1847.403198
10135.150962	0.091190	0.292781	1931.662964
10135.151879	0.091187	0.292781	2015.281006
10136.183241	1.198129	0.300580	524.780396
10136.184209	0.614615	0.300580	1119.728149
10136.185126	0.092754	0.300580	1204.783447
10136.186031	0.091143	0.300580	1287.267456
10136.186920	0.091245	0.300580	1368.384399
10136.187867	0.091179	0.300580	1454.731079
10136.188768	0.091216	0.300580	1536.916504
10136.189655	0.091161	0.300580	1617.776245
10136.190588	0.091168	0.300580	1702.836182
10136.191502	0.091183	0.300580	1786.177368
10136.192405	0.091165	0.300580	1868.498901
10136.193294	0.091135	0.300580	1949.518188
10137.255375	1.201787	0.294542	528.786316
10137.256269	0.722164	0.294542	1174.401123
10137.257218	0.093369	0.294542	1263.008423
10137.258133	0.091128	0.294542	1346.390503
10137.259031	0.091216	0.294542	1428.302246
10137.259964	0.091157	0.294542	1513.351929
10137.260873	0.091249	0.294542	1596.297119
10137.261775	0.091241	0.294542	1678.596924
10137.262660	0.091274	0.294542	1759.374756
10137.263604	0.091252	0.294542	1845.517090
10137.264506	0.091121	0.294542	1927.707886
10137.265404	0.091201	0.294542	2009.606567
10138.297817	1.223456	0.297599	550.555115
10138.298724	0.689758	0.297599	1176.165894
10138.299613	0.094230	0.297599	1259.936157
10138.300563	0.091157	0.297599	1346.535522
10138.301467	0.091172	0.297599	1428.954834
10138.302363	0.091161	0.297599	1510.635010
10138.303304	0.091216	0.297599	1596.469116
10138.304210	0.091135	0.297599	1679.037598
10138.305111	0.091110	0.297599	1761.127319
10138.306000	0.091113	0.297599	1842.127075
10138.306959	0.091337	0.297599	1929.718994
10138.307865	0.091282	0.297599	2012.420288
10139.367900	1.232908	0.289893	562.205872
10139.368809	0.683079	0.289893	1183.124268
10139.369750	0.094006	0.289893	1271.584229
10139.370655	0.091245	0.289893	1354.161011
10139.371549	0.091212	0.289893	1435.704712
10139.372438	0.091179	0.289893	1516.763062
10139.373370	0.091238	0.289893	1601.796631
10139.374270	0.091161	0.289893	1683.841431
10139.375176	0.091198	0.289893	1766.466431
10139.376068	0.091143	0.289893	1847.765625
10139.377021	0.091304	0.289893	1934.778076
10139.377930	0.091223	0.289893	2017.699951
10140.414423	1.219270	0.302381	543.794434
10140.415326	0.712925	0.302381	1187.565552
10140.416213	0.094585	0.302381	1271.462402
10140.417166	0.091227	0.302381	1358.401611
10140.418070	0.091135	0.302381	1440.787842
10140.418967	0.091216	0.302381	1522.608398
10140.419857	0.091161	0.302381	1603.741577
10140.420796	0.091183	0.302381	1689.362305
10140.421704	0.091106	0.302381	1772.086548
10140.422592	0.091091	0.302381	1852.975586
10140.423520	0.091318	0.302381	1937.718994
10140.424432	0.091274	0.302381	2020.961304
10141.480403	1.219072	0.289962	542.487122
10141.481304	0.719777	0.289962	1191.005859
10141.482188	0.094750	0.289962	1274.764648
10141.483131	0.091274	0.289962	1360.836426
10141.484039	0.091238	0.289962	1443.680298
10141.484944	0.091187	0.289962	1526.204102
10141.485834	0.091172	0.289962	1607.347046
10141.486780	0.091340	0.289962	1693.755005
10141.487682	0.091230	0.289962	1776.044922
10141.488577	0.091219	0.289962	1857.686401
10141.489496	0.091245	0.289962	1941.540649
10141.490402	0.091296	0.289962	2024.255127
10142.528970	1.208225	0.306083	530.410767
10142.529921	0.642144	0.306083	1141.089355
10142.530834	0.093212	0.306083	1226.191650
10142.531732	0.091154	0.306083	1308.047607
10142.532648	0.091161	0.306083	1391.551025
10142.533570	0.091252	0.306083	1475.685791
10142.534477	0.091201	0.306083	1558.405273
10142.535374	0.091117	0.306083	1640.137207
10142.536310	0.091234	0.306083	1725.532349
10142.537214	0.091278	0.306083	1808.047729
10142.538111	0.091227	0.306083	1889.878174
10142.538997	0.091219	0.306083	1970.698608
10143.593930	1.208225	0.292757	527.994324
10143.594840	0.719744	0.292757	1182.961060
10143.595724	0.094757	0.292757	1266.726318
10143.596682	0.091351	0.292757	1354.240845
10143.597577	0.091187	0.292757	1435.852783
10143.598472	0.091227	0.292757	1517.500732
10143.599397	0.091307	0.292757	1601.960083
10143.600306	0.091252	0.292757	1684.908569
10143.601210	0.091190	0.292757	1767.344482
10143.602098	0.091252	0.292757	1848.376709
10143.603050	0.091311	0.292757	1935.304810
10143.603952	0.091238	0.292757	2017.601318
10144.643538	1.215183	0.301152	538.326111
10144.644442	0.720055	0.301152	1189.255737
10144.645332	0.094655	0.301152	1273.498291
10144.646294	0.091132	0.301152	1361.166870
10144.647193	0.091252	0.301152	1443.202759
10144.648093	0.091150	0.301152	1525.237671
10144.648982	0.091198	0.301152	1606.312256
10144.649928	0.091300	0.301152	1692.682129
10144.650839	0.091139	0.301152	1775.709717
10144.651739	0.091179	0.301152	1857.770996
10144.652665	0.091238	0.301152	1942.257202
10144.653566	0.091267	0.301152	2024.488892
10145.707474	1.220211	0.295787	547.874878
10145.708381	0.694878	0.295787	1178.129150
10145.709308	0.093889	0.295787	1265.164429
10145.710216	0.091234	0.295787	1348.005005
10145.711121	0.091249	0.295787	1430.585205
10145.712008	0.091252	0.295787	1511.526123
10145.712960	0.091241	0.295787	1598.387939
10145.713865	0.091234	0.295787	1680.954834
10145.714757	0.091190	0.295787	1762.296509
10145.715672	0.091307	0.295787	1845.842773
10145.716585	0.091241	0.295787	1929.146240
10145.717495	0.091091	0.295787	2012.039307
10146.758103	1.213539	0.301043	543.665405
10146.759001	0.711577	0.301043	1182.661621
10146.759938	0.094277	0.301043	1270.999512
10146.760841	0.091168	0.301043	1353.324463
10146.761754	0.091055	0.301043	1436.457397
10146.762650	0.091271	0.301043	1518.235962
10146.763606	0.091212	0.301043	1605.434814
10146.764514	0.091241	0.301043	1688.282104
10146.765430	0.091274	0.301043	1771.889526
10146.766316	0.091212	0.301043	1852.703491
10146.767255	0.091172	0.301043	1938.313843
10146.768151	0.091194	0.301043	2020.023560
10147.821014	1.211887	0.291146	541.713562
10147.821906	0.717433	0.291146	1181.663696
10147.822859	0.093450	0.291146	1270.721313
10147.823764	0.091234	0.291146	1353.288208
10147.824654	0.091216	0.291146	1434.470337
10147.825581	0.091194	0.291146	1519.007080
10147.826489	0.091256	0.291146	1601.867676
10147.827393	0.091150	0.291146	1684.267212
10147.828281	0.091176	0.291146	1765.231079
10147.829230	0.091282	0.291146	1851.857422
10147.830122	0.091260	0.291146	1933.261108
10147.831020	0.091274	0.291146	2015.225586
10148.871630	1.212964	0.302784	536.130005
10148.872610	0.588168	0.302784	1112.534424
10148.873516	0.092849	0.302784	1196.655762
10148.874407	0.091128	0.302784	1277.850708
10148.875329	0.091271	0.302784	1362.002319
10148.876244	0.091260	0.302784	1445.505005
10148.877154	0.091187	0.302784	1528.484741
10148.878051	0.091307	0.302784	1610.387451
10148.878983	0.091304	0.302784	1695.482544
10148.879886	0.091252	0.302784	1777.883545
10148.880789	0.091179	0.302784	1860.218384
10148.881678	0.091183	0.302784	1941.279907
10149.936591	1.211591	0.293929	535.523010
10149.937496	0.714496	0.293929	1182.141724
10149.938384	0.094651	0.293929	1266.191650
10149.939346	0.091304	0.293929	1354.025879
10149.940253	0.091102	0.293929	1436.655640
10149.941144	0.091230	0.293929	1517.942017
10149.942083	0.091315	0.293929	1603.686523
10149.942986	0.091274	0.293929	1686.107300
10149.943880	0.091212	0.293929	1767.651001
10149.944775	0.091198	0.293929	1849.272827
10149.945706	0.091344	0.293929	1934.314087
10149.946604	0.091282	0.293929	2016.285034
10150.985153	1.195305	0.308415	517.567139
10150.986110	0.693926	0.308415	1181.654053
10150.987015	0.093149	0.308415	1265.954224
10150.987931	0.091230	0.308415	1349.521362
10150.988821	0.091187	0.308415	1430.677368
10150.989768	0.091091	0.308415	1516.940796
10150.990670	0.091227	0.308415	1599.227417
10150.991589	0.091278	0.308415	1683.111938
10150.992473	0.091201	0.308415	1763.733765
10150.993411	0.091161	0.308415	1849.242676
10150.994311	0.091252	0.308415	1931.369873
10150.995202	0.091359	0.308415	2012.770386
10152.052195	1.224078	0.298780	558.179749
10152.053116	0.662494	0.298780	1168.336670
10152.054009	0.093604	0.298780	1251.924561
10152.054894	0.091223	0.298780	1332.656982
10152.055847	0.091216	0.298780	1419.585693
10152.056755	0.091249	0.298780	1502.439575
10152.057656	0.091157	0.298780	1584.572266
10152.058585	0.091198	0.298780	1669.294800
10152.059490	0.091223	0.298780	1751.851807
10152.060386	0.091260	0.298780	1833.620605
10152.061275	0.091212	0.298780	1914.708252
10152.062210	0.091267	0.298780	2000.042969
10153.097678	1.207705	0.305612	532.597961
10153.098663	0.602520	0.305612	1126.079590
10153.099556	0.092900	0.305612	1209.039673
10153.100451	0.091176	0.305612	1290.641846
10153.101345	0.091179	0.305612	1372.156006
10153.102278	0.091230	0.305612	1457.274048
10153.103187	0.091135	0.305612	1540.115967
10153.104083	0.091238	0.305612	1621.864990
10153.105019	0.091282	0.305612	1707.304687
10153.105923	0.091370	0.305612	1789.902832
10153.106818	0.091113	0.305612	1871.449219
10153.107703	0.091245	0.305612	1952.201172
10154.166734	1.204420	0.295734	532.353699
10154.167629	0.729935	0.295734	1185.645752
10154.168578	0.093519	0.295734	1274.395508
10154.169478	0.091201	0.295734	1356.476562
10154.170376	0.091223	0.295734	1438.394897
10154.171261	0.091252	0.295734	1519.153320
10154.172210	0.091256	0.295734	1605.755371
10154.173110	0.091201	0.295734	1687.836426
10154.174003	0.091154	0.295734	1769.236572
10154.174935	0.091146	0.295734	1854.184814
10154.175838	0.091212	0.295734	1936.549438
10154.176738	0.091117	0.295734	2018.554687
10155.212280	1.264607	0.309390	601.952881
10155.213208	0.610144	0.309390	1168.166504
10155.214114	0.092853	0.309390	1252.291138
10155.215005	0.091230	0.309390	1333.577515
10155.215942	0.091249	0.309390	1419.077637
10155.216835	0.091132	0.309390	1500.458130
10155.217725	0.091256	0.309390	1581.676025
10155.218656	0.091304	0.309390	1666.679810
10155.219563	0.091252	0.309390	1749.445801
10155.220467	0.091208	0.309390	1831.898315
10155.221358	0.091102	0.309390	1913.070435
10155.222292	0.091300	0.309390	1998.344727
10156.282334	1.219504	0.296286	545.118530
10156.283230	0.715291	0.296286	1186.018799
10156.284117	0.094545	0.296286	1269.879883
10156.285068	0.091216	0.296286	1356.626099
10156.285975	0.091230	0.296286	1439.372070
10156.286881	0.091128	0.296286	1521.933960
10156.287770	0.091113	0.296286	1602.933716
10156.288720	0.091274	0.296286	1689.644409
10156.289621	0.091198	0.296286	1771.813354
10156.290514	0.091088	0.296286	1853.154663
10156.291443	0.091205	0.296286	1937.883911
10156.292346	0.091216	0.296286	2020.251831
10157.324808	1.266753	0.308999	632.109741
10157.325723	0.605416	0.308999	1186.065674
10157.326616	0.092955	0.308999	1269.074829
10157.327508	0.091117	0.308999	1350.351196
10157.328438	0.091219	0.308999	1435.185303
10157.329352	0.091234	0.308999	1518.573242
10157.330252	0.091179	0.308999	1600.634521
10157.331165	0.091223	0.308999	1683.921265
10157.332085	0.091198	0.308999	1767.822998
10157.332993	0.090963	0.308999	1850.417480
10157.333884	0.091143	0.308999	1931.625488
10157.334814	0.091227	0.308999	2016.466431
10158.396872	1.198473	0.298111	520.137207
10158.397810	0.706644	0.298111	1182.969482
10158.398716	0.093354	0.298111	1267.548706
10158.399613	0.091139	0.298111	1349.300293
10158.400498	0.091183	0.298111	1429.997070
10158.401439	0.091183	0.298111	1515.800171
10158.402331	0.091150	0.298111	1597.105835
10158.403233	0.091113	0.298111	1679.290039
10158.404118	0.091161	0.298111	1759.967407
10158.405064	0.091212	0.298111	1846.254150
10158.405970	0.091102	0.298111	1928.792847
10158.406869	0.091117	0.298111	2010.707031
10159.438283	1.204589	0.305636	526.405212
10159.439205	0.702803	0.305636	1174.389404
10159.440104	0.094091	0.305636	1258.976807
10159.441033	0.091172	0.305636	1343.675537
10159.441931	0.091216	0.305636	1425.587402
10159.442839	0.091190	0.305636	1508.388062
10159.443728	0.091146	0.305636	1589.417114
10159.444662	0.091282	0.305636	1674.674316
10159.445562	0.091198	0.305636	1756.752075
10159.446468	0.091208	0.305636	1839.386963
10159.447354	0.091121	0.305636	1920.119873
10159.448301	0.091198	0.305636	2006.483887
10160.510412	1.197444	0.300403	523.282959
10160.511369	0.691252	0.300403	1184.811523
10160.512262	0.093182	0.300403	1268.023437
10160.513166	0.091132	0.300403	1350.406372
10160.514056	0.091139	0.300403	1431.520020
10160.514992	0.091187	0.300403	1516.870605
10160.515909	0.091168	0.300403	1600.471802
10160.516812	0.091069	0.300403	1682.707397
10160.517697	0.091088	0.300403	1763.319946
10160.518649	0.091143	0.300403	1850.087646
10160.519544	0.091106	0.300403	1931.627441
10160.520429	0.091128	0.300403	2012.275635
10161.553869	1.216051	0.305100	535.062439
10161.554836	0.609170	0.305100	1124.129761
10161.555753	0.092783	0.305100	1209.211914
10161.556649	0.090952	0.305100	1290.705078
10161.557579	0.091135	0.305100	1375.460815
10161.558482	0.091216	0.305100	1457.828735
10161.559382	0.091165	0.305100	1539.876831
10161.560268	0.091102	0.305100	1620.593506
10161.561219	0.091190	0.305100	1707.315430
10161.562123	0.091154	0.305100	1789.718262
10161.563023	0.091194	0.305100	1871.792725
10161.563907	0.091069	0.305100	1952.297974
10162.622925	1.204757	0.300234	530.093140
10162.623817	0.723860	0.300234	1175.776123
10162.624772	0.093633	0.300234	1265.195435
10162.625684	0.091069	0.300234	1348.250610
10162.626574	0.091003	0.300234	1429.243652
10162.627512	0.091245	0.300234	1514.831543
10162.628416	0.091187	0.300234	1597.264160
10162.629320	0.091183	0.300234	1679.693481
10162.630212	0.091296	0.300234	1761.129883
10162.631158	0.091289	0.300234	1847.489380
10162.632059	0.091227	0.300234	1929.684692
10162.632962	0.091143	0.300234	2011.986450
10163.669447	1.200168	0.308774	524.473633
10163.670343	0.719590	0.308774	1169.226196
10163.671308	0.093197	0.308774	1259.161377
10163.672217	0.091091	0.308774	1341.963379
10163.673111	0.091121	0.308774	1423.425171
10163.674047	0.091121	0.308774	1508.714111
10163.674946	0.091102	0.308774	1590.615112
10163.675847	0.091069	0.308774	1672.668579
10163.676739	0.091099	0.308774	1753.928589
10163.677683	0.091198	0.308774	1840.019043
10163.678587	0.091128	0.308774	1922.398682
10163.679495	0.091198	0.308774	2005.206055
10164.736452	1.195027	0.309708	517.446655
10164.737417	0.647520	0.309708	1142.302979
10164.738320	0.093237	0.309708	1226.496216
10164.739225	0.091139	0.309708	1308.976929
10164.740115	0.091051	0.309708	1390.012329
10164.741070	0.091304	0.309708	1477.207397
10164.741971	0.091205	0.309708	1559.382935
10164.742864	0.091194	0.309708	1640.819092
10164.743791	0.091198	0.309708	1725.359131
10164.744693	0.091300	0.309708	1807.711792
10164.745596	0.091132	0.309708	1890.003662
10164.746491	0.091146	0.309708	1971.579590
10165.785047	1.219453	0.303984	537.778870
10165.785958	0.688542	0.303984	1165.041016
10165.786889	0.093208	0.303984	1251.817627
10165.787776	0.091168	0.303984	1332.683838
10165.788737	0.091110	0.303984	1420.240234
10165.789635	0.091187	0.303984	1502.125732
10165.790523	0.091106	0.303984	1583.027832
10165.791479	0.091168	0.303984	1670.184692
10165.792388	0.091106	0.303984	1753.000000
10165.793313	0.091143	0.303984	1837.306885
10165.794196	0.091124	0.303984	1917.769653
10165.795127	0.091198	0.303984	2002.674561
