time (s)	coil I (A)	last det (V)	int current (uC)
6762.826696	1.198868	0.260293	521.507751
6762.827680	0.631751	0.260293	1143.150269
6762.828577	0.092772	0.260293	1226.366943
6762.829483	0.090974	0.260293	1308.789551
6762.830372	0.091099	0.260293	1389.776245
6762.831313	0.091077	0.260293	1475.479370
6762.832216	0.091095	0.260293	1557.738159
6762.833112	0.091055	0.260293	1639.323120
6762.834039	0.091165	0.260293	1723.832642
6762.834940	0.091102	0.260293	1805.915771
6762.835853	0.091073	0.260293	1889.065430
6762.836744	0.091051	0.260293	1970.191895
6763.872721	1.208185	0.277530	536.434082
6763.873623	0.717063	0.277530	1183.224854
6763.874556	0.094369	0.277530	1271.270996
6763.875468	0.091018	0.277530	1354.279419
6763.876363	0.091198	0.277530	1435.901245
6763.877253	0.091073	0.277530	1516.956177
6763.878199	0.091238	0.277530	1603.267090
6763.879085	0.091084	0.277530	1683.967529
6763.880004	0.091113	0.277530	1767.700684
6763.880894	0.091168	0.277530	1848.840332
6763.881852	0.091179	0.277530	1936.189941
6763.882758	0.091168	0.277530	2018.788330
6764.931547	1.228282	0.279850	547.813965
6764.932456	0.699749	0.279850	1183.885376
6764.933345	0.094010	0.279850	1267.460327
6764.934287	0.091025	0.279850	1353.206299
6764.935201	0.091146	0.279850	1436.513916
6764.936109	0.091040	0.279850	1519.178223
6764.936996	0.091062	0.279850	1599.950195
6764.937951	0.091124	0.279850	1686.973877
6764.938865	0.091051	0.279850	1770.194580
6764.939762	0.091168	0.279850	1851.972412
6764.940649	0.091113	0.279850	1932.789917
6764.941579	0.091150	0.279850	2017.559326
6765.997557	1.228414	0.257215	593.324097
6765.998482	0.633109	0.257215	1178.949951
6765.999378	0.093003	0.257215	1262.280518
6766.000268	0.091033	0.257215	1343.299683
6766.001211	0.091139	0.257215	1429.243652
6766.002125	0.090963	0.257215	1512.383911
6766.003029	0.091172	0.257215	1594.803223
6766.003914	0.091095	0.257215	1675.422241
6766.004852	0.091154	0.257215	1760.924316
6766.005755	0.090981	0.257215	1843.080566
6766.006640	0.091106	0.257215	1923.709351
6766.007572	0.091113	0.257215	2008.626953
6767.038432	1.227341	0.285970	549.848877
6767.039343	0.696863	0.285970	1184.690918
6767.040231	0.094087	0.285970	1268.240112
6767.041157	0.091135	0.285970	1352.631348
6767.042077	0.091132	0.285970	1436.472412
6767.042972	0.091040	0.285970	1517.953247
6767.043864	0.091198	0.285970	1599.301392
6767.044796	0.091165	0.285970	1684.266724
6767.045692	0.091044	0.285970	1765.841919
6767.046609	0.091157	0.285970	1849.433105
6767.047503	0.091128	0.285970	1930.901489
6767.048453	0.091084	0.285970	2017.431274
6768.112073	1.200692	0.255459	525.903137
6768.112969	0.731704	0.255459	1181.510010
6768.113928	0.093065	0.255459	1270.759521
6768.114841	0.091110	0.255459	1353.942627
6768.115745	0.091000	0.255459	1436.206421
6768.116629	0.091058	0.255459	1516.702026
6768.117574	0.091201	0.255459	1602.887085
6768.118486	0.091047	0.255459	1685.922241
6768.119376	0.091069	0.255459	1766.973999
6768.120306	0.091110	0.255459	1851.705933
6768.121205	0.091077	0.255459	1933.583862
6768.122103	0.091058	0.255459	2015.354248
6769.159628	1.212539	0.281103	531.092102
6769.160607	0.593401	0.281103	1112.031494
6769.161520	0.092637	0.281103	1196.608765
6769.162421	0.091121	0.281103	1278.708496
6769.163338	0.091091	0.281103	1362.239258
6769.164249	0.091260	0.281103	1445.376953
6769.165161	0.091106	0.281103	1528.465576
6769.166052	0.091051	0.281103	1609.592041
6769.166989	0.091190	0.281103	1695.037231
6769.167886	0.091088	0.281103	1776.742798
6769.168793	0.091077	0.281103	1859.349365
6769.169684	0.091157	0.281103	1940.570435
6770.217936	1.217999	0.261755	542.009644
6770.218847	0.704722	0.261755	1184.011108
6770.219732	0.094387	0.261755	1267.543823
6770.220691	0.091208	0.261755	1355.012817
6770.221595	0.091121	0.261755	1437.385864
6770.222487	0.091139	0.261755	1518.681763
6770.223413	0.091143	0.261755	1603.079834
6770.224320	0.091168	0.261755	1685.769409
6770.225216	0.091150	0.261755	1767.439697
6770.226103	0.091073	0.261755	1848.221436
6770.227054	0.091176	0.261755	1934.929321
6770.227962	0.091132	0.261755	2017.676758
6771.282888	1.211605	0.288233	531.894653
6771.283864	0.600773	0.288233	1118.248779
6771.284780	0.092582	0.288233	1203.053711
6771.285677	0.091102	0.288233	1284.772461
6771.286597	0.091205	0.288233	1368.680908
6771.287503	0.091201	0.288233	1451.309204
6771.288406	0.091143	0.288233	1533.610962
6771.289304	0.091117	0.288233	1615.433960
6771.290251	0.091201	0.288233	1701.801514
6771.291145	0.091146	0.288233	1783.286255
6771.292036	0.091252	0.288233	1864.592163
6771.292925	0.091201	0.288233	1945.670044
6772.324304	1.212349	0.261405	535.858093
6772.325205	0.727185	0.261405	1191.051758
6772.326097	0.094552	0.261405	1275.392090
6772.327063	0.091201	0.261405	1363.492432
6772.327970	0.091135	0.261405	1446.152100
6772.328867	0.091176	0.261405	1527.936523
6772.329795	0.091176	0.261405	1612.547363
6772.330693	0.091212	0.261405	1694.455933
6772.331580	0.091172	0.261405	1775.325439
6772.332465	0.091088	0.261405	1855.937988
6772.333401	0.091223	0.261405	1941.322876
6772.334311	0.091168	0.261405	2024.285889
6773.401556	1.213297	0.284419	539.917236
6773.402450	0.720359	0.284419	1183.917969
6773.403417	0.093032	0.284419	1273.880127
6773.404324	0.091069	0.284419	1356.479980
6773.405220	0.091143	0.284419	1438.143677
6773.406104	0.091110	0.284419	1518.684570
6773.407041	0.091219	0.284419	1604.157227
6773.407949	0.091135	0.284419	1686.908081
6773.408845	0.091157	0.284419	1768.584961
6773.409770	0.091198	0.284419	1852.942627
6773.410675	0.091296	0.284419	1935.565918
6773.411576	0.091165	0.284419	2017.705200
6774.436345	1.237738	0.282223	600.302917
6774.437271	0.605533	0.282223	1161.026855
6774.438173	0.092845	0.282223	1244.773437
6774.439062	0.091187	0.282223	1325.838257
6774.440005	0.091249	0.282223	1411.885864
6774.440902	0.091161	0.282223	1493.657227
6774.441797	0.091230	0.282223	1575.308472
6774.442684	0.091132	0.282223	1656.142212
6774.443621	0.091150	0.282223	1741.549683
6774.444517	0.091047	0.282223	1823.128174
6774.445413	0.091187	0.282223	1904.831299
6774.446347	0.091150	0.282223	1989.965332
6775.517138	1.226642	0.268354	548.308899
6775.518043	0.708798	0.268354	1189.770752
6775.518929	0.094460	0.268354	1273.462646
6775.519879	0.091165	0.268354	1360.068970
6775.520784	0.091190	0.268354	1442.596069
6775.521688	0.091205	0.268354	1525.045288
6775.522580	0.091201	0.268354	1606.396729
6775.523522	0.091249	0.268354	1692.353027
6775.524433	0.091205	0.268354	1775.440674
6775.525325	0.091223	0.268354	1856.811768
6775.526252	0.091322	0.268354	1941.467285
6775.527154	0.091249	0.268354	2023.773682
6776.553942	1.223408	0.290445	544.416687
6776.554849	0.707758	0.290445	1186.352783
6776.555733	0.094446	0.290445	1269.842896
6776.556674	0.091110	0.290445	1355.577026
6776.557580	0.091069	0.290445	1438.085815
6776.558478	0.091168	0.290445	1519.954834
6776.559415	0.091201	0.290445	1605.410278
6776.560321	0.091205	0.290445	1688.041870
6776.561224	0.091113	0.290445	1770.317139
6776.562111	0.091091	0.290445	1851.115112
6776.563065	0.091187	0.290445	1938.107056
6776.563965	0.091165	0.290445	2020.155151
6777.628113	1.216439	0.268265	541.315491
6777.629012	0.702671	0.268265	1173.016602
6777.629982	0.092805	0.268265	1263.037598
6777.630891	0.091183	0.268265	1345.922852
6777.631791	0.091187	0.268265	1427.990723
6777.632725	0.091219	0.268265	1513.189697
6777.633624	0.091205	0.268265	1595.182861
6777.634521	0.091212	0.268265	1677.000122
6777.635406	0.091124	0.268265	1757.645142
6777.636352	0.091223	0.268265	1843.942261
6777.637256	0.091095	0.268265	1926.292114
6777.638162	0.091165	0.268265	2008.887207
6778.671061	1.211668	0.279299	541.615417
6778.671954	0.726757	0.279299	1190.609009
6778.672911	0.093307	0.279299	1279.903687
6778.673804	0.091132	0.279299	1361.284180
6778.674708	0.091132	0.279299	1443.667114
6778.675598	0.091183	0.279299	1524.819824
6778.676551	0.091230	0.279299	1611.762451
6778.677451	0.091117	0.279299	1693.767700
6778.678346	0.091110	0.279299	1775.310791
6778.679273	0.091110	0.279299	1859.769409
6778.680165	0.091198	0.279299	1941.117554
6778.681061	0.091088	0.279299	2022.732056
6779.740650	1.235109	0.276177	569.385071
6779.741545	0.691267	0.276177	1188.069092
6779.742491	0.093904	0.276177	1276.902100
6779.743400	0.091230	0.276177	1359.830566
6779.744301	0.091044	0.276177	1441.860962
6779.745188	0.091121	0.276177	1522.684937
6779.746126	0.091176	0.276177	1608.207642
6779.747025	0.091080	0.276177	1690.088867
6779.747926	0.091128	0.276177	1772.195190
6779.748814	0.091073	0.276177	1853.067993
6779.749754	0.091106	0.276177	1938.707642
6779.750664	0.091157	0.276177	2021.660767
6780.788688	1.212583	0.289333	535.961731
6780.789584	0.708889	0.289333	1171.126465
6780.790551	0.092952	0.289333	1261.010742
6780.791449	0.091044	0.289333	1342.767944
6780.792341	0.091132	0.289333	1424.057373
6780.793280	0.091234	0.289333	1509.726196
6780.794186	0.091168	0.289333	1592.324585
6780.795102	0.091051	0.289333	1675.727295
6780.795988	0.091055	0.289333	1756.401733
6780.796915	0.091183	0.289333	1840.928223
6780.797832	0.091143	0.289333	1924.505981
6780.798748	0.091146	0.289333	2007.995972
6781.850587	1.229857	0.267451	552.205872
6781.851489	0.700514	0.267451	1184.069458
6781.852423	0.093424	0.267451	1271.327515
6781.853328	0.091194	0.267451	1353.857910
6781.854231	0.091128	0.267451	1436.146484
6781.855118	0.091128	0.267451	1516.976929
6781.856071	0.091183	0.267451	1603.874146
6781.856978	0.091029	0.267451	1686.437500
6781.857867	0.091088	0.267451	1767.414429
6781.858797	0.091135	0.267451	1852.170166
6781.859697	0.091161	0.267451	1934.214966
6781.860608	0.091091	0.267451	2017.199097
6782.905339	1.221544	0.281373	596.113525
6782.906265	0.614418	0.281373	1165.064331
6782.907170	0.092688	0.281373	1248.947021
6782.908067	0.091161	0.281373	1330.718384
6782.908998	0.091176	0.281373	1415.602783
6782.909906	0.091198	0.281373	1498.410156
6782.910812	0.091051	0.281373	1580.902344
6782.911700	0.091095	0.281373	1661.794678
6782.912652	0.091157	0.281373	1748.576416
6782.913562	0.091077	0.281373	1831.456177
6782.914454	0.091154	0.281373	1912.765137
6782.915401	0.091168	0.281373	1999.101440
6783.964113	1.215948	0.272044	542.312988
6783.965003	0.711013	0.272044	1175.114746
6783.965974	0.092981	0.272044	1265.399292
6783.966888	0.090978	0.272044	1348.552979
6783.967781	0.091124	0.272044	1429.927002
6783.968704	0.091113	0.272044	1514.024536
6783.969604	0.091117	0.272044	1596.029785
6783.970505	0.091124	0.272044	1678.132812
6783.971394	0.091106	0.272044	1759.125977
6783.972336	0.091190	0.272044	1845.027100
6783.973232	0.091165	0.272044	1926.710571
6783.974132	0.091132	0.272044	2008.729004
6785.019361	1.229282	0.289261	550.718384
6785.020292	0.666453	0.289261	1171.185791
6785.021178	0.093713	0.289261	1254.215820
6785.022113	0.091245	0.289261	1339.530029
6785.023024	0.091102	0.289261	1422.524170
6785.023926	0.091055	0.289261	1504.655518
6785.024819	0.091212	0.289261	1586.107910
6785.025772	0.091176	0.289261	1672.998169
6785.026670	0.091146	0.289261	1754.847534
6785.027560	0.091088	0.289261	1835.915527
6785.028492	0.091267	0.289261	1920.976440
6785.029394	0.091293	0.289261	2003.322510
6786.080219	1.233113	0.272491	557.367004
6786.081116	0.704813	0.272491	1189.584473
6786.082069	0.093464	0.272491	1278.656006
6786.082972	0.091157	0.272491	1360.970947
6786.083871	0.091088	0.272491	1442.858765
6786.084758	0.091128	0.272491	1523.689209
6786.085687	0.091179	0.272491	1608.394653
6786.086598	0.091117	0.272491	1691.402222
6786.087491	0.091176	0.272491	1772.822021
6786.088416	0.091252	0.272491	1857.230469
6786.089320	0.091139	0.272491	1939.619995
6786.090216	0.091084	0.272491	2021.231201
6787.131339	1.213191	0.282767	532.590820
6787.132298	0.623888	0.282767	1130.899414
6787.133217	0.092944	0.282767	1216.315308
6787.134114	0.091208	0.282767	1298.129272
6787.135045	0.091223	0.282767	1383.057983
6787.135956	0.091179	0.282767	1466.122192
6787.136862	0.091106	0.282767	1548.664185
6787.137750	0.091168	0.282767	1629.621582
6787.138691	0.091245	0.282767	1715.483276
6787.139590	0.091168	0.282767	1797.443481
6787.140485	0.091223	0.282767	1879.088135
6787.141369	0.091223	0.282767	1959.729370
6788.200408	1.215388	0.277675	539.632324
6788.201307	0.718436	0.277675	1185.506592
6788.202252	0.093636	0.277675	1273.993042
6788.203160	0.091161	0.277675	1356.767090
6788.204055	0.091187	0.277675	1438.379028
6788.204938	0.091113	0.277675	1518.832031
6788.205869	0.091267	0.277675	1603.801758
6788.206766	0.091099	0.277675	1685.517212
6788.207655	0.091212	0.277675	1766.604858
6788.208577	0.091179	0.277675	1850.672119
6788.209489	0.091208	0.277675	1933.854248
6788.210394	0.091249	0.277675	2016.434448
6789.240782	1.208833	0.293990	530.677673
6789.241749	0.623478	0.293990	1133.580811
6789.242652	0.093076	0.293990	1217.628540
6789.243548	0.091117	0.293990	1299.269287
6789.244453	0.091143	0.293990	1381.753296
6789.245347	0.091150	0.293990	1463.241333
6789.246271	0.091106	0.293990	1547.423218
6789.247182	0.091146	0.293990	1630.457397
6789.248098	0.091212	0.293990	1714.007690
6789.248984	0.091168	0.293990	1794.782715
6789.249934	0.091168	0.293990	1881.392578
6789.250858	0.091194	0.293990	1965.655640
6790.318082	1.256323	0.268285	623.136292
6790.319008	0.581964	0.268285	1162.035034
6790.319910	0.092607	0.268285	1245.566895
6790.320795	0.091198	0.268285	1326.276733
6790.321753	0.091205	0.268285	1413.651001
6790.322649	0.091187	0.268285	1495.354126
6790.323557	0.091161	0.268285	1578.128174
6790.324447	0.091110	0.268285	1659.215698
6790.325377	0.091190	0.268285	1744.022583
6790.326280	0.091084	0.268285	1826.271362
6790.327166	0.091051	0.268285	1906.942627
6790.328090	0.091267	0.268285	1991.273437
6791.353297	1.211235	0.280266	535.365967
6791.354188	0.723073	0.280266	1179.623535
6791.355147	0.093245	0.280266	1269.045166
6791.356052	0.091154	0.280266	1351.539185
6791.356948	0.091157	0.280266	1433.216064
6791.357872	0.091143	0.280266	1517.431763
6791.358775	0.091194	0.280266	1599.779785
6791.359683	0.090959	0.280266	1682.370972
6791.360574	0.091124	0.280266	1763.562744
6791.361503	0.091263	0.280266	1848.346436
6791.362407	0.091161	0.280266	1930.755859
6791.363309	0.091176	0.280266	2012.996216
6792.433096	1.204526	0.285804	528.787048
6792.433990	0.733011	0.285804	1184.099365
6792.434959	0.092944	0.285804	1274.162476
6792.435871	0.091223	0.285804	1357.358032
6792.436766	0.091143	0.285804	1438.930664
6792.437687	0.091219	0.285804	1522.943848
6792.438599	0.091289	0.285804	1606.199463
6792.439507	0.091165	0.285804	1688.976929
6792.440401	0.091172	0.285804	1770.484619
6792.441321	0.091198	0.285804	1854.386353
6792.442225	0.091205	0.285804	1936.835571
6792.443125	0.091154	0.285804	2018.873779
6793.467340	1.201231	0.277526	524.937744
6793.468233	0.731122	0.277526	1177.829590
6793.469196	0.093175	0.277526	1267.557129
6793.470098	0.091022	0.277526	1349.658691
6793.470989	0.091099	0.277526	1430.827637
6793.471943	0.091165	0.277526	1517.798584
6793.472842	0.091080	0.277526	1599.679810
6793.473764	0.091168	0.277526	1683.736938
6793.474659	0.091099	0.277526	1765.270264
6793.475595	0.091230	0.277526	1850.661987
6793.476508	0.091102	0.277526	1933.838379
6793.477421	0.091150	0.277526	2017.058228
6794.546642	1.206877	0.296161	529.819214
6794.547599	0.680361	0.296161	1180.925049
6794.548504	0.093157	0.296161	1265.231934
6794.549403	0.091121	0.296161	1347.149414
6794.550294	0.091187	0.296161	1428.396606
6794.551235	0.091241	0.296161	1514.254761
6794.552136	0.091201	0.296161	1596.427002
6794.553044	0.091293	0.296161	1679.320801
6794.553932	0.091190	0.296161	1760.297729
6794.554877	0.091208	0.296161	1846.489746
6794.555784	0.091073	0.296161	1929.093018
6794.556673	0.091187	0.296161	2010.157837
6795.586504	1.194899	0.278167	515.001282
6795.587447	0.711043	0.278167	1185.514404
6795.588358	0.093442	0.278167	1270.640381
6795.589263	0.091106	0.278167	1353.091309
6795.590151	0.091110	0.278167	1433.996704
6795.591099	0.091267	0.278167	1520.517944
6795.591998	0.091143	0.278167	1602.455078
6795.592895	0.091040	0.278167	1684.118042
6795.593786	0.091091	0.278167	1765.280396
6795.594736	0.091201	0.278167	1851.921509
6795.595637	0.091190	0.278167	1934.083862
6795.596537	0.091106	0.278167	2016.079224
6796.654553	1.220775	0.293128	542.024231
6796.655473	0.688923	0.293128	1175.833740
6796.656369	0.093871	0.293128	1259.942017
6796.657293	0.091110	0.293128	1344.127319
6796.658207	0.091252	0.293128	1427.532104
6796.659111	0.091091	0.293128	1509.878662
6796.660009	0.091176	0.293128	1591.754272
6796.660947	0.091176	0.293128	1677.276978
6796.661846	0.091187	0.293128	1759.253662
6796.662747	0.091080	0.293128	1841.317017
6796.663630	0.091106	0.293128	1921.763550
6796.664568	0.091172	0.293128	2007.282715
6797.710282	1.199509	0.268478	520.587036
6797.711249	0.641517	0.268478	1140.934326
6797.712163	0.093109	0.268478	1226.036133
6797.713062	0.091088	0.268478	1307.923950
6797.713949	0.091091	0.268478	1388.721924
6797.714887	0.091230	0.268478	1474.296143
6797.715793	0.091128	0.268478	1556.858032
6797.716688	0.091110	0.268478	1638.401123
6797.717601	0.091187	0.268478	1721.654419
6797.718532	0.091143	0.268478	1806.508179
6797.719437	0.091088	0.268478	1888.942505
6797.720326	0.091187	0.268478	1970.007324
6798.759895	1.204559	0.313664	534.824341
6798.760795	0.722860	0.313664	1185.398437
6798.761731	0.094548	0.313664	1273.895752
6798.762648	0.091088	0.313664	1357.423096
6798.763552	0.091121	0.313664	1439.796143
6798.764448	0.091135	0.313664	1521.453369
6798.765410	0.091183	0.313664	1609.171265
6798.766319	0.091088	0.313664	1691.969971
6798.767214	0.091168	0.313664	1773.565552
6798.768146	0.091245	0.313664	1858.605957
6798.769048	0.091139	0.313664	1940.813232
6798.769965	0.091263	0.313664	2024.501831
6799.830997	1.220878	0.264168	539.627991
6799.831921	0.683544	0.264168	1171.222412
6799.832821	0.093556	0.264168	1255.422729
6799.833748	0.091227	0.264168	1339.989990
6799.834651	0.091198	0.264168	1422.341309
6799.835550	0.091165	0.264168	1504.298218
6799.836438	0.091223	0.264168	1585.304321
6799.837382	0.091238	0.264168	1671.432739
6799.838278	0.091198	0.264168	1753.145752
6799.839174	0.091187	0.264168	1834.848877
6799.840066	0.091165	0.264168	1916.167603
6799.841014	0.091230	0.264168	2002.654053
6800.870404	1.257880	0.297704	623.908264
6800.871329	0.587542	0.297704	1167.384155
6800.872231	0.092758	0.297704	1251.051514
6800.873119	0.091187	0.297704	1332.025146
6800.874066	0.091329	0.297704	1418.514038
6800.874974	0.091124	0.297704	1501.254883
6800.875864	0.091201	0.297704	1582.423950
6800.876758	0.091278	0.297704	1664.026611
6800.877682	0.091227	0.297704	1748.320190
6800.878591	0.091187	0.297704	1831.208740
6800.879491	0.091135	0.297704	1913.230469
6800.880431	0.091234	0.297704	1998.990601
6801.945047	1.223939	0.281140	550.772644
6801.945953	0.702056	0.281140	1186.834961
6801.946898	0.094237	0.281140	1275.889038
6801.947810	0.091198	0.281140	1359.061157
6801.948714	0.091263	0.281140	1441.563232
6801.949600	0.091150	0.281140	1522.322021
6801.950550	0.091212	0.281140	1608.973511
6801.951448	0.091256	0.281140	1690.921509
6801.952341	0.091102	0.281140	1772.275879
6801.953227	0.091143	0.281140	1853.028198
6801.954185	0.091227	0.281140	1940.423462
6801.955092	0.091102	0.281140	2023.053223
6802.991069	1.225723	0.282537	547.898010
6802.991966	0.718202	0.282537	1192.125122
6802.992853	0.094658	0.282537	1276.086914
6802.993806	0.091256	0.282537	1363.053955
6802.994704	0.091227	0.282537	1444.975586
6802.995606	0.091208	0.282537	1527.245605
6802.996495	0.091139	0.282537	1608.268066
6802.997444	0.091230	0.282537	1694.845825
6802.998353	0.091154	0.282537	1777.704468
6802.999250	0.091121	0.282537	1859.439697
6803.000187	0.091260	0.282537	1944.950073
6803.001083	0.091245	0.282537	2026.705688
6804.050897	1.212144	0.293285	535.767456
6804.051802	0.728730	0.293285	1195.268555
6804.052689	0.094600	0.293285	1279.178467
6804.053607	0.091146	0.293285	1362.850708
6804.054514	0.091227	0.293285	1445.593384
6804.055415	0.091132	0.293285	1527.703003
6804.056301	0.091187	0.293285	1608.494263
6804.057240	0.091183	0.293285	1694.114990
6804.058155	0.091143	0.293285	1777.510498
6804.059062	0.091110	0.293285	1860.146973
6804.059952	0.091219	0.293285	1941.332275
6804.060905	0.091311	0.293285	2028.351685
6805.115358	1.226946	0.282509	550.898621
6805.116264	0.696581	0.282509	1182.000732
6805.117152	0.094215	0.282509	1265.663696
6805.118111	0.091025	0.282509	1352.957031
6805.119008	0.091040	0.282509	1434.619995
6805.119918	0.091187	0.282509	1517.599731
6805.120812	0.091132	0.282509	1599.071411
6805.121749	0.091245	0.282509	1684.568115
6805.122670	0.091139	0.282509	1768.507080
6805.123569	0.091187	0.282509	1850.483765
6805.124492	0.091113	0.282509	1934.581299
6805.125426	0.091179	0.282509	2019.742676
6806.157280	1.246633	0.293611	578.437866
6806.158201	0.648149	0.293611	1175.383545
6806.159095	0.093497	0.293611	1258.970093
6806.160034	0.091194	0.293611	1344.601074
6806.160940	0.091238	0.293611	1427.262451
6806.161838	0.091183	0.293611	1509.144653
6806.162726	0.091168	0.293611	1590.102051
6806.163670	0.091267	0.293611	1676.258179
6806.164572	0.091219	0.293611	1758.538208
6806.165461	0.091139	0.293611	1839.560669
6806.166384	0.091139	0.293611	1923.681885
6806.167293	0.091223	0.293611	2006.603760
6807.235020	1.204094	0.285663	528.597412
6807.235922	0.718063	0.285663	1176.290039
6807.236875	0.093186	0.285663	1265.096313
6807.237788	0.091117	0.285663	1348.286133
6807.238687	0.091154	0.285663	1430.233154
6807.239615	0.091260	0.285663	1514.922241
6807.240525	0.091183	0.285663	1597.898682
6807.241428	0.091117	0.285663	1680.177246
6807.242320	0.091201	0.285663	1761.528687
6807.243262	0.091157	0.285663	1847.398804
6807.244163	0.091124	0.285663	1929.501709
6807.245057	0.091150	0.285663	2010.989746
6808.269828	1.282229	0.290671	634.703308
6808.270745	0.607939	0.290671	1192.183838
6808.271644	0.092941	0.290671	1275.737549
6808.272530	0.091190	0.290671	1356.532104
6808.273460	0.091249	0.290671	1441.393433
6808.274370	0.091194	0.290671	1524.379883
6808.275271	0.091205	0.290671	1606.555420
6808.276196	0.091187	0.290671	1690.902954
6808.277096	0.091256	0.290671	1773.033447
6808.277992	0.091135	0.290671	1854.690674
6808.278877	0.091139	0.290671	1935.348633
6808.279815	0.091249	0.290671	2020.939941
6809.348552	1.202040	0.293760	524.089355
6809.349526	0.665215	0.293760	1172.008545
6809.350438	0.092864	0.293760	1256.700317
6809.351336	0.091187	0.293760	1338.585815
6809.352222	0.091132	0.293760	1419.328369
6809.353151	0.091212	0.293760	1504.064453
6809.354056	0.091161	0.293760	1586.565063
6809.354965	0.091260	0.293760	1669.520142
6809.355851	0.091198	0.293760	1750.321167
6809.356797	0.091278	0.293760	1836.670166
6809.357704	0.091154	0.293760	1919.346436
6809.358603	0.091219	0.293760	2001.352783
6810.387936	1.216655	0.283444	546.278259
6810.388840	0.707516	0.283444	1185.872559
6810.389726	0.094376	0.283444	1269.489868
6810.390673	0.091201	0.283444	1355.857422
6810.391571	0.091223	0.283444	1437.775757
6810.392463	0.091117	0.283444	1519.052124
6810.393374	0.091135	0.283444	1602.076294
6810.394311	0.091146	0.283444	1687.480347
6810.395214	0.091055	0.283444	1769.702759
6810.396103	0.091161	0.283444	1850.744751
6810.397052	0.091285	0.283444	1937.374634
6810.397958	0.091084	0.283444	2019.896729
6811.456978	1.215582	0.302989	537.287354
6811.457886	0.715217	0.302989	1186.704590
6811.458775	0.094438	0.302989	1270.660400
6811.459724	0.091150	0.302989	1357.161621
6811.460626	0.091143	0.302989	1439.372192
6811.461515	0.091124	0.302989	1520.381714
6811.462423	0.091230	0.302989	1603.218994
6811.463337	0.091260	0.302989	1686.630371
6811.464239	0.091146	0.302989	1768.844238
6811.465137	0.091117	0.302989	1850.667236
6811.466064	0.091252	0.302989	1935.258301
6811.466972	0.091245	0.302989	2018.108887
6812.509657	1.226627	0.275750	544.622498
6812.510582	0.686715	0.275750	1179.833984
6812.511480	0.093739	0.275750	1264.011597
6812.512412	0.091187	0.275750	1348.997437
6812.513322	0.091274	0.275750	1432.057129
6812.514227	0.091154	0.275750	1514.551147
6812.515128	0.091132	0.275750	1596.660767
6812.516067	0.091227	0.275750	1682.322754
6812.516965	0.091194	0.275750	1764.214844
6812.517862	0.091176	0.275750	1845.999268
6812.518743	0.091187	0.275750	1926.334595
6812.519677	0.091146	0.275750	2011.465210
6813.564872	1.197283	0.306470	518.423401
6813.565814	0.677849	0.306470	1156.957275
6813.566724	0.093402	0.306470	1241.953125
6813.567619	0.090996	0.306470	1323.394653
6813.568507	0.091036	0.306470	1404.234985
6813.569462	0.091165	0.306470	1491.297119
6813.570352	0.091154	0.306470	1572.423828
6813.571253	0.091084	0.306470	1654.490479
6813.572157	0.091113	0.306470	1736.856934
6813.573093	0.091219	0.306470	1822.238403
6813.573997	0.091157	0.306470	1904.644531
6813.574898	0.091113	0.306470	1986.737549
6814.628808	1.202087	0.273647	526.514282
6814.629787	0.596810	0.273647	1110.791504
6814.630695	0.092626	0.273647	1194.895630
6814.631619	0.091033	0.273647	1279.009888
6814.632516	0.091095	0.273647	1360.722046
6814.633454	0.091135	0.273647	1446.206909
6814.634356	0.091003	0.273647	1528.291992
6814.635247	0.091113	0.273647	1609.473877
6814.636193	0.091198	0.273647	1695.746704
6814.637096	0.091029	0.273647	1777.945923
6814.637990	0.091047	0.273647	1859.342285
6814.638881	0.091000	0.273647	1940.423096
6815.676897	1.225803	0.310260	551.611450
6815.677795	0.713437	0.310260	1192.278320
6815.678681	0.094515	0.310260	1276.018921
6815.679636	0.091165	0.310260	1363.081055
6815.680546	0.091132	0.310260	1446.010742
6815.681438	0.091208	0.310260	1527.368774
6815.682330	0.091146	0.310260	1608.671265
6815.683270	0.091135	0.310260	1694.338379
6815.684174	0.091150	0.310260	1776.737915
6815.685065	0.091044	0.310260	1857.857910
6815.685990	0.091187	0.310260	1942.205444
6815.686896	0.091036	0.310260	2024.684448
6816.745416	1.200780	0.274513	522.339294
6816.746373	0.659802	0.274513	1153.770020
6816.747273	0.093230	0.274513	1237.677002
6816.748188	0.090956	0.274513	1320.901611
6816.749075	0.091047	0.274513	1401.660645
6816.750013	0.091055	0.274513	1487.069946
6816.750921	0.091102	0.274513	1569.790771
6816.751814	0.091051	0.274513	1651.099365
6816.752726	0.091234	0.274513	1734.304932
6816.753665	0.091047	0.274513	1819.798340
6816.754563	0.091106	0.274513	1901.611450
6816.755452	0.091014	0.274513	1982.523193
6817.789445	1.237156	0.304850	614.866455
6817.790380	0.566810	0.304850	1144.834106
6817.791282	0.092428	0.304850	1228.204102
6817.792169	0.091091	0.304850	1309.002075
6817.793114	0.091062	0.304850	1395.055664
6817.794020	0.090956	0.304850	1477.461670
6817.794945	0.091073	0.304850	1561.704224
6817.795832	0.091154	0.304850	1642.557495
6817.796780	0.091080	0.304850	1728.901611
6817.797680	0.091099	0.304850	1810.890381
6817.798563	0.091022	0.304850	1891.262573
6817.799494	0.091172	0.304850	1976.143555
6818.862028	1.213213	0.281526	535.026855
6818.862924	0.705428	0.281526	1167.090698
6818.863898	0.092750	0.281526	1257.429443
6818.864825	0.091055	0.281526	1341.837158
6818.865713	0.091124	0.281526	1422.755493
6818.866645	0.091051	0.281526	1507.614990
6818.867560	0.091157	0.281526	1591.023804
6818.868479	0.091132	0.281526	1674.773682
6818.869366	0.091168	0.281526	1755.639893
6818.870322	0.091110	0.281526	1842.740723
6818.871232	0.091117	0.281526	1925.657104
6818.872128	0.091091	0.281526	2007.274902
6819.901959	1.279347	0.312508	634.556091
6819.902867	0.626785	0.312508	1203.676514
6819.903765	0.093175	0.312508	1287.347656
6819.904649	0.090996	0.312508	1367.788208
6819.905590	0.091110	0.312508	1453.522339
6819.906501	0.091102	0.312508	1536.516479
6819.907400	0.091051	0.312508	1618.371338
6819.908328	0.091062	0.312508	1702.876831
6819.909238	0.091179	0.312508	1785.849854
6819.910140	0.091124	0.312508	1868.043945
6819.911033	0.091135	0.312508	1949.427734
6819.911957	0.091154	0.312508	2033.653687
6820.975583	1.228436	0.277957	549.111023
6820.976519	0.663296	0.277957	1169.955933
6820.977412	0.093446	0.277957	1253.403198
6820.978334	0.091168	0.277957	1337.460327
6820.979241	0.091179	0.277957	1420.159912
6820.980145	0.091062	0.277957	1502.479980
6820.981032	0.091029	0.277957	1583.222778
6820.981972	0.091124	0.277957	1668.879639
6820.982877	0.091088	0.277957	1751.313965
6820.983779	0.091117	0.277957	1833.501465
6820.984666	0.091099	0.277957	1914.305908
6820.985611	0.091132	0.277957	2000.425293
6822.016979	1.211382	0.311630	535.430725
6822.017872	0.715232	0.311630	1174.132812
6822.018811	0.093446	0.311630	1261.878662
6822.019717	0.091113	0.311630	1344.427246
6822.020618	0.091091	0.311630	1426.500488
6822.021554	0.091146	0.311630	1511.813354
6822.022463	0.091172	0.311630	1594.688599
6822.023361	0.091117	0.311630	1676.511597
6822.024247	0.091179	0.311630	1757.296387
6822.025194	0.091095	0.311630	1843.563354
6822.026095	0.091238	0.311630	1925.768555
6822.026991	0.091143	0.311630	2007.432251
6823.090636	1.204274	0.277550	523.859070
6823.091598	0.645498	0.277550	1144.828125
6823.092501	0.093135	0.277550	1228.928833
6823.093397	0.091003	0.277550	1310.467896
6823.094287	0.091161	0.277550	1391.601074
6823.095218	0.091223	0.277550	1476.529785
6823.096124	0.091132	0.277550	1559.094971
6823.097024	0.090974	0.277550	1640.971680
6823.097935	0.091073	0.277550	1723.939209
6823.098864	0.091150	0.277550	1808.617432
6823.099769	0.090992	0.277550	1890.965576
6823.100660	0.091135	0.277550	1972.167114
6824.131592	1.292791	0.311179	646.395264
6824.132517	0.574006	0.311179	1177.351074
6824.133419	0.092501	0.311179	1260.787231
6824.134304	0.091007	0.311179	1341.328491
6824.135244	0.091172	0.311179	1427.030029
6824.136150	0.091066	0.311179	1509.535522
6824.137041	0.091124	0.311179	1590.727295
6824.137966	0.091106	0.311179	1675.000244
6824.138866	0.091157	0.311179	1757.041748
6824.139763	0.091077	0.311179	1838.737549
6824.140653	0.091033	0.311179	1919.756714
6824.141596	0.091139	0.311179	2005.700684
6825.205253	1.276384	0.278884	620.322754
6825.206187	0.592888	0.278884	1174.080322
6825.207085	0.092593	0.278884	1257.228638
6825.207972	0.091007	0.278884	1337.951904
6825.208917	0.091198	0.278884	1424.133545
6825.209811	0.091146	0.278884	1505.618286
6825.210697	0.091143	0.278884	1586.370605
6825.211630	0.091091	0.278884	1671.358765
6825.212545	0.091084	0.278884	1754.700562
6825.213449	0.091055	0.278884	1837.014038
6825.214341	0.091036	0.278884	1918.218506
6825.215280	0.091282	0.278884	2003.932007
6826.246613	1.220120	0.307509	545.393433
6826.247513	0.723094	0.307509	1196.178467
6826.248399	0.094687	0.307509	1280.071533
6826.249362	0.091036	0.307509	1367.739502
6826.250262	0.091219	0.307509	1449.837036
6826.251179	0.091007	0.307509	1533.290527
6826.252066	0.091091	0.307509	1614.088501
6826.253006	0.091117	0.307509	1699.738403
6826.253928	0.091157	0.307509	1783.785400
6826.254827	0.091187	0.307509	1865.762085
6826.255760	0.091091	0.307509	1950.750244
6826.256672	0.091157	0.307509	2033.885620
6827.318741	1.212854	0.286106	542.145691
6827.319640	0.718601	0.286106	1188.167969
6827.320524	0.094537	0.286106	1271.739014
6827.321460	0.091143	0.286106	1357.048462
6827.322367	0.091139	0.286106	1439.711426
6827.323264	0.091139	0.286106	1521.463013
6827.324174	0.091150	0.286106	1604.409424
6827.325089	0.091150	0.286106	1687.811523
6827.326002	0.091040	0.286106	1770.931030
6827.326893	0.091062	0.286106	1852.067261
6827.327831	0.091066	0.286106	1937.486816
6827.328734	0.091091	0.286106	2019.742310
6828.362192	1.213953	0.312536	536.567078
6828.363092	0.720216	0.312536	1184.761475
6828.363991	0.094446	0.312536	1269.668213
6828.364939	0.091143	0.312536	1356.071411
6828.365845	0.091077	0.312536	1438.586914
6828.366745	0.091058	0.312536	1520.539429
6828.367673	0.091128	0.312536	1605.106201
6828.368567	0.091190	0.312536	1686.630249
6828.369466	0.091110	0.312536	1768.537842
6828.370356	0.091069	0.312536	1849.589600
6828.371308	0.091106	0.312536	1936.322510
6828.372196	0.091161	0.312536	2017.273437
6829.430767	1.224562	0.279000	580.442261
6829.431703	0.605859	0.279000	1147.526611
6829.432614	0.092732	0.279000	1232.005371
6829.433506	0.090996	0.279000	1313.173828
6829.434441	0.091157	0.279000	1398.405884
6829.435347	0.091187	0.279000	1481.020874
6829.436252	0.090963	0.279000	1563.342529
6829.437140	0.091161	0.279000	1644.293457
6829.438078	0.091260	0.279000	1729.895142
6829.438983	0.091062	0.279000	1812.306274
6829.439875	0.091080	0.279000	1893.549927
6829.440796	0.091102	0.279000	1977.455078
6830.480340	1.222672	0.312613	546.534424
6830.481322	0.601414	0.312613	1137.122559
6830.482227	0.092498	0.312613	1220.832886
6830.483130	0.091227	0.312613	1303.210693
6830.484019	0.091110	0.312613	1384.207153
6830.484969	0.091205	0.312613	1470.851685
6830.485871	0.091150	0.312613	1553.068848
6830.486762	0.091058	0.312613	1634.201782
6830.487684	0.091018	0.312613	1718.120483
6830.488596	0.091106	0.312613	1801.209106
6830.489495	0.091132	0.312613	1883.136353
6830.490383	0.091187	0.312613	1964.109985
6831.541733	1.215183	0.281160	565.060181
6831.542672	0.611931	0.281160	1139.663574
6831.543603	0.092373	0.281160	1225.662842
6831.544493	0.091069	0.281160	1306.714600
6831.545431	0.090945	0.281160	1392.020874
6831.546346	0.091058	0.281160	1475.339233
6831.547261	0.091029	0.281160	1558.630859
6831.548148	0.091113	0.281160	1639.448364
6831.549093	0.091077	0.281160	1725.515869
6831.550011	0.091110	0.281160	1809.154541
6831.550904	0.091036	0.281160	1890.450073
6831.551839	0.091091	0.281160	1975.620483
6832.598480	1.211184	0.310699	538.976868
6832.599381	0.715463	0.310699	1183.608643
6832.600312	0.094303	0.310699	1271.404663
6832.601238	0.091179	0.310699	1355.836548
6832.602143	0.091099	0.310699	1438.280762
6832.603041	0.091143	0.310699	1520.126831
6832.603979	0.091212	0.310699	1605.683838
6832.604878	0.091091	0.310699	1687.574951
6832.605772	0.091110	0.310699	1769.026978
6832.606656	0.091099	0.310699	1849.558228
6832.607604	0.091198	0.310699	1936.013428
6832.608504	0.091143	0.310699	2018.041748
6833.651658	1.208214	0.286799	529.197815
6833.652568	0.711896	0.286799	1177.022949
6833.653466	0.094424	0.286799	1261.815552
6833.654410	0.091212	0.286799	1347.919800
6833.655320	0.091135	0.286799	1430.852905
6833.656210	0.091062	0.286799	1511.898071
6833.657151	0.091084	0.286799	1597.608154
6833.658045	0.091205	0.286799	1679.145264
6833.658942	0.091176	0.286799	1760.929687
6833.659835	0.091055	0.286799	1842.241577
6833.660757	0.091282	0.286799	1926.403320
6833.661662	0.091154	0.286799	2008.897339
6834.718675	1.221398	0.307211	544.743347
6834.719576	0.709439	0.307211	1183.947510
6834.720520	0.093402	0.307211	1272.119141
6834.721431	0.091055	0.307211	1355.069946
6834.722331	0.091124	0.307211	1437.081787
6834.723218	0.091084	0.307211	1517.873291
6834.724176	0.091143	0.307211	1605.187866
6834.725084	0.091073	0.307211	1687.882202
6834.725972	0.091117	0.307211	1768.794067
6834.726905	0.091084	0.307211	1853.775391
6834.727804	0.091124	0.307211	1935.696045
6834.728697	0.091088	0.307211	2017.037354
6835.760593	1.214059	0.293619	537.828064
6835.761529	0.672462	0.293619	1167.252686
6835.762424	0.093695	0.293619	1251.109741
6835.763343	0.091018	0.293619	1334.755371
6835.764253	0.091113	0.293619	1417.668457
6835.765152	0.091099	0.293619	1499.566162
6835.766043	0.091176	0.293619	1580.803589
6835.766970	0.091187	0.293619	1665.333496
6835.767877	0.091198	0.293619	1748.049683
6835.768780	0.091106	0.293619	1830.318359
6835.769668	0.091040	0.293619	1911.161865
6835.770619	0.091198	0.293619	1997.890747
6836.837386	1.291604	0.302389	644.510437
6836.838323	0.563181	0.302389	1172.211182
6836.839228	0.092373	0.302389	1255.808838
6836.840120	0.091139	0.302389	1337.104736
6836.841070	0.091117	0.302389	1423.665771
6836.841967	0.091022	0.302389	1505.312256
6836.842853	0.091073	0.302389	1586.002930
6836.843775	0.091161	0.302389	1670.053223
6836.844679	0.091051	0.302389	1752.363403
6836.845587	0.091124	0.302389	1835.104248
6836.846475	0.091117	0.302389	1916.016113
6836.847421	0.091168	0.302389	2002.261230
6837.873098	1.200762	0.300181	522.331299
6837.873993	0.726650	0.300181	1172.683350
6837.874957	0.093149	0.300181	1262.479370
6837.875863	0.091106	0.300181	1345.021362
6837.876751	0.091099	0.300181	1425.916992
6837.877697	0.091091	0.300181	1512.089355
6837.878602	0.091058	0.300181	1594.497192
6837.879524	0.091183	0.300181	1678.567749
6837.880409	0.091051	0.300181	1759.147949
6837.881338	0.091146	0.300181	1843.822754
6837.882243	0.090970	0.300181	1926.151001
6837.883130	0.091154	0.300181	2007.004272
6838.950861	1.209778	0.297241	529.882690
6838.951763	0.728350	0.297241	1186.854004
6838.952650	0.094636	0.297241	1270.796387
6838.953619	0.091205	0.297241	1359.173828
6838.954520	0.091066	0.297241	1441.223999
6838.955417	0.091106	0.297241	1522.946045
6838.956337	0.091157	0.297241	1606.810669
6838.957240	0.091194	0.297241	1689.158691
6838.958149	0.091150	0.297241	1772.013916
6838.959036	0.091055	0.297241	1852.779419
6838.959976	0.091062	0.297241	1938.377686
6838.960878	0.091033	0.297241	2020.489258
6839.991249	1.212012	0.306337	535.709167
6839.992147	0.724684	0.306337	1186.475220
6839.993091	0.094435	0.306337	1275.621704
6839.994005	0.091139	0.306337	1358.922607
6839.994911	0.091055	0.306337	1441.418213
6839.995798	0.091055	0.306337	1522.183716
6839.996733	0.091157	0.306337	1607.415771
6839.997633	0.091088	0.306337	1689.394653
6839.998530	0.091176	0.306337	1771.179077
6839.999415	0.091095	0.306337	1851.798096
6840.000363	0.091183	0.306337	1938.239502
6840.001271	0.091157	0.306337	2021.010254
6841.060325	1.234929	0.298332	561.892761
6841.061247	0.672605	0.298332	1182.034546
6841.062139	0.093545	0.298332	1265.476562
6841.063063	0.091091	0.298332	1349.644897
6841.063967	0.091165	0.298332	1432.057617
6841.064870	0.091058	0.298332	1514.283325
6841.065761	0.091135	0.298332	1595.484863
6841.066714	0.091139	0.298332	1682.340210
6841.067624	0.091135	0.298332	1765.273315
6841.068521	0.091073	0.298332	1846.965820
6841.069424	0.091051	0.298332	1929.184937
6841.070343	0.091205	0.298332	2013.002197
6842.111955	1.211873	0.306284	533.223938
6842.112902	0.679274	0.306284	1176.496094
6842.113803	0.093215	0.306284	1260.483154
6842.114698	0.091084	0.306284	1342.003296
6842.115582	0.091128	0.306284	1422.560425
6842.116516	0.091165	0.306284	1507.708130
6842.117419	0.091150	0.306284	1590.016479
6842.118325	0.091091	0.306284	1672.545166
6842.119212	0.091117	0.306284	1753.365845
6842.120155	0.091256	0.306284	1839.420288
6842.121059	0.091117	0.306284	1921.790039
6842.121951	0.091179	0.306284	2003.121826
6843.167705	1.229780	0.303279	557.090454
6843.168616	0.688480	0.303279	1184.295898
6843.169503	0.094076	0.303279	1267.741211
6843.170464	0.091135	0.303279	1355.322144
6843.171361	0.091124	0.303279	1437.060547
6843.172252	0.090970	0.303279	1518.115234
6843.173179	0.091238	0.303279	1602.692627
6843.174088	0.091095	0.303279	1685.497925
6843.174992	0.091066	0.303279	1767.821289
6843.175885	0.091080	0.303279	1849.156006
6843.176830	0.091208	0.303279	1935.348022
6843.177739	0.091139	0.303279	2018.193359
6844.233164	1.217769	0.298135	537.035950
6844.234151	0.589288	0.298135	1118.663574
6844.235048	0.092659	0.298135	1201.778442
6844.235938	0.091080	0.298135	1282.839966
6844.236878	0.091146	0.298135	1368.517456
6844.237777	0.091051	0.298135	1450.372314
6844.238693	0.091179	0.298135	1533.892456
6844.239586	0.091051	0.298135	1615.201050
6844.240529	0.091208	0.298135	1701.210693
6844.241440	0.091066	0.298135	1784.171509
6844.242361	0.091179	0.298135	1868.147583
6844.243248	0.091296	0.298135	1949.127441
6845.276640	1.224683	0.313406	548.657837
6845.277574	0.660275	0.313406	1165.354370
6845.278462	0.093611	0.313406	1248.480835
6845.279402	0.091165	0.313406	1334.175537
6845.280302	0.091135	0.313406	1416.197266
6845.281204	0.091055	0.313406	1498.328613
6845.282090	0.091139	0.313406	1579.077637
6845.283057	0.091172	0.313406	1667.240845
6845.283964	0.091047	0.313406	1749.820801
6845.284861	0.091117	0.313406	1831.552734
6845.285788	0.091139	0.313406	1916.038452
6845.286695	0.091216	0.313406	1998.771240
6846.350294	1.217882	0.290723	541.957520
6846.351194	0.717825	0.290723	1187.999756
6846.352081	0.094545	0.290723	1271.860840
6846.353024	0.091187	0.290723	1357.849731
6846.353922	0.091176	0.290723	1439.725342
6846.354822	0.091198	0.290723	1521.803101
6846.355750	0.091238	0.290723	1606.471802
6846.356653	0.091198	0.290723	1688.823120
6846.357545	0.091154	0.290723	1770.132080
6846.358434	0.091168	0.290723	1851.180664
6846.359385	0.091245	0.290723	1937.954712
6846.360279	0.091139	0.290723	2019.432861
6847.392733	1.229722	0.321890	557.063904
6847.393659	0.680775	0.321890	1187.461670
6847.394549	0.093739	0.321890	1270.889404
6847.395456	0.091161	0.321890	1353.572266
6847.396378	0.091219	0.321890	1437.676636
6847.397289	0.090992	0.321890	1520.570801
6847.398186	0.091179	0.321890	1602.358521
6847.399114	0.091234	0.321890	1687.023804
6847.400019	0.091230	0.321890	1769.587402
6847.400924	0.091128	0.321890	1852.058228
6847.401811	0.091168	0.321890	1932.924438
6847.402756	0.091238	0.321890	2019.144165
6848.461771	1.203772	0.288382	527.252136
6848.462735	0.622672	0.288382	1127.508057
6848.463648	0.092992	0.288382	1212.409668
6848.464544	0.091172	0.288382	1294.099609
6848.465468	0.091278	0.288382	1378.440552
6848.466372	0.091219	0.288382	1460.902954
6848.467279	0.091069	0.288382	1543.502808
6848.468170	0.091135	0.288382	1624.704346
6848.469106	0.091212	0.288382	1710.078857
6848.470007	0.091282	0.288382	1792.323730
6848.470906	0.091300	0.288382	1874.402466
6848.471792	0.091157	0.288382	1955.167725
6849.510877	1.222870	0.319211	549.068604
6849.511779	0.707930	0.319211	1187.621094
6849.512732	0.093831	0.319211	1277.041626
6849.513647	0.091033	0.319211	1360.336548
6849.514538	0.091157	0.319211	1441.557617
6849.515427	0.091183	0.319211	1522.619141
6849.516363	0.091150	0.319211	1607.935425
6849.517266	0.091135	0.319211	1690.230591
6849.518154	0.091154	0.319211	1771.174927
6849.519064	0.091095	0.319211	1854.071289
6849.519984	0.091139	0.319211	1937.919067
6849.520889	0.091146	0.319211	2020.406372
6850.571232	1.237189	0.288822	567.869629
6850.572171	0.640873	0.288822	1169.649170
6850.573057	0.093153	0.288822	1252.182861
6850.574016	0.091073	0.288822	1339.521851
6850.574932	0.091102	0.288822	1422.971558
6850.575833	0.091106	0.288822	1505.057983
6850.576767	0.091022	0.288822	1590.072266
6850.577683	0.091069	0.288822	1673.491821
6850.578603	0.091099	0.288822	1757.302612
6850.579496	0.091117	0.288822	1838.670044
6850.580446	0.091095	0.288822	1925.210205
6850.581359	0.091157	0.288822	2008.436768
6851.631052	1.197762	0.320867	518.631165
6851.631996	0.679420	0.320867	1160.003784
6851.632901	0.093486	0.320867	1244.608887
6851.633802	0.091051	0.320867	1326.645874
6851.634688	0.091124	0.320867	1407.381958
6851.635626	0.091146	0.320867	1492.877075
6851.636534	0.091179	0.320867	1575.667725
6851.637444	0.091080	0.320867	1658.550781
6851.638347	0.091095	0.320867	1740.809570
6851.639287	0.091165	0.320867	1826.504272
6851.640193	0.091077	0.320867	1909.019775
6851.641090	0.091176	0.320867	1990.804199
6852.680656	1.215604	0.293257	537.297058
6852.681550	0.704564	0.293257	1167.177490
6852.682514	0.093076	0.293257	1256.902954
6852.683424	0.091073	0.293257	1339.779419
6852.684314	0.091055	0.293257	1420.818115
6852.685238	0.091139	0.293257	1505.030518
6852.686156	0.091165	0.293257	1588.719604
6852.687059	0.091095	0.293257	1670.978394
6852.687945	0.091051	0.293257	1751.649658
6852.688894	0.091146	0.293257	1838.147461
6852.689796	0.091077	0.293257	1920.298584
6852.690693	0.091047	0.293257	2001.968018
6853.749716	1.212814	0.316456	539.702087
6853.750618	0.716470	0.316456	1185.957764
6853.751541	0.094479	0.316456	1273.161621
6853.752458	0.091036	0.316456	1356.641968
6853.753368	0.091062	0.316456	1439.508423
6853.754263	0.091051	0.316456	1520.999146
6853.755202	0.091212	0.316456	1606.647339
6853.756101	0.091121	0.316456	1688.564819
6853.756999	0.091066	0.316456	1770.341797
6853.757882	0.091044	0.316456	1850.733398
6853.758810	0.091198	0.316456	1935.364746
6853.759721	0.091066	0.316456	2018.325562
6854.792683	1.242876	0.298135	570.480042
6854.793592	0.678596	0.298135	1187.323975
6854.794480	0.093735	0.298135	1270.560913
6854.795424	0.091161	0.298135	1356.616821
6854.796337	0.091073	0.298135	1439.766479
6854.797237	0.090945	0.298135	1521.616821
6854.798126	0.091077	0.298135	1602.583984
6854.799067	0.091161	0.298135	1688.366333
6854.799974	0.091077	0.298135	1770.972900
6854.800878	0.091117	0.298135	1853.342651
6854.801771	0.091150	0.298135	1934.739502
6854.802704	0.091132	0.298135	2019.765259
6855.866826	1.208163	0.314853	531.591675
6855.867724	0.715074	0.314853	1173.728516
6855.868707	0.092574	0.314853	1264.729248
6855.869617	0.091073	0.314853	1347.605713
6855.870515	0.091022	0.314853	1429.343262
6855.871442	0.091069	0.314853	1513.764526
6855.872344	0.091113	0.314853	1595.948730
6855.873237	0.090916	0.314853	1677.136230
6855.874122	0.090985	0.314853	1757.658081
6855.875051	0.091146	0.314853	1842.332886
6855.875955	0.091143	0.314853	1924.725830
6855.876859	0.091084	0.314853	2007.065796
6856.905723	1.263424	0.305201	601.389832
6856.906626	0.654364	0.305201	1192.280518
6856.907513	0.093604	0.305201	1275.306885
6856.908468	0.091146	0.305201	1362.351562
6856.909368	0.091018	0.305201	1444.267822
6856.910266	0.091036	0.305201	1526.018433
6856.911171	0.091077	0.305201	1608.442871
6856.912099	0.091190	0.305201	1693.067383
6856.913004	0.091124	0.305201	1775.534790
6856.913899	0.091080	0.305201	1857.051636
6856.914852	0.091168	0.305201	1943.934937
6856.915755	0.091179	0.305201	2026.269775
6857.981910	1.218962	0.311167	538.781372
6857.982844	0.667939	0.311167	1162.636841
6857.983747	0.093237	0.311167	1246.830078
6857.984684	0.091208	0.311167	1332.292480
6857.985582	0.091198	0.311167	1414.187866
6857.986480	0.091022	0.311167	1495.925415
6857.987367	0.091124	0.311167	1576.752686
6857.988316	0.091165	0.311167	1663.267822
6857.989223	0.091157	0.311167	1745.947388
6857.990122	0.091161	0.311167	1827.901001
6857.991011	0.091110	0.311167	1908.897461
6857.991967	0.091212	0.311167	1996.096313
6859.019217	1.213887	0.308278	541.393494
6859.020124	0.704465	0.308278	1180.343506
6859.021058	0.094252	0.308278	1268.374634
6859.021971	0.091124	0.308278	1351.571045
6859.022878	0.090996	0.308278	1434.104492
6859.023771	0.091198	0.308278	1515.543823
6859.024718	0.091095	0.308278	1601.810791
6859.025625	0.091128	0.308278	1684.463867
6859.026518	0.091003	0.308278	1765.729980
6859.027410	0.091157	0.308278	1847.042236
6859.028368	0.091219	0.308278	1934.430542
6859.029272	0.091110	0.308278	2016.793701
6860.096976	1.206775	0.309543	529.774231
6860.097868	0.720015	0.309543	1172.027344
6860.098833	0.093058	0.309543	1261.828125
6860.099739	0.091095	0.309543	1344.360107
6860.100631	0.091168	0.309543	1425.682129
6860.101571	0.091176	0.309543	1511.387085
6860.102472	0.091146	0.309543	1593.509888
6860.103365	0.091073	0.309543	1674.838135
6860.104255	0.091139	0.309543	1755.951782
6860.105186	0.091172	0.309543	1840.832764
6860.106105	0.091080	0.309543	1924.535645
6860.107011	0.091051	0.309543	2007.027832
6861.133772	1.201538	0.312524	529.878296
6861.134665	0.730507	0.312524	1182.220703
6861.135631	0.092926	0.312524	1271.987305
6861.136536	0.091047	0.312524	1354.385132
6861.137424	0.091022	0.312524	1435.212402
6861.138341	0.091198	0.312524	1518.840576
6861.139271	0.091080	0.312524	1603.545288
6861.140179	0.090974	0.312524	1686.149780
6861.141070	0.091179	0.312524	1767.390503
6861.142005	0.091150	0.312524	1852.615723
6861.142915	0.091077	0.312524	1935.495483
6861.143834	0.091073	0.312524	2019.191528
6862.211020	1.208690	0.311062	530.614990
6862.211951	0.708600	0.311062	1190.321533
6862.212891	0.092681	0.311062	1277.441406
6862.213816	0.091088	0.311062	1361.697510
6862.214705	0.091110	0.311062	1442.693970
6862.215656	0.091025	0.311062	1529.259155
6862.216549	0.091051	0.311062	1610.567749
6862.217434	0.091113	0.311062	1691.203003
6862.218359	0.091044	0.311062	1775.418457
6862.219260	0.091022	0.311062	1857.429077
6862.220187	0.091139	0.311062	1941.914795
6862.221076	0.091077	0.311062	2022.881958
6863.247828	1.218245	0.308431	533.591125
6863.248754	0.687404	0.308431	1170.126831
6863.249656	0.093512	0.308431	1254.474609
6863.250570	0.091091	0.308431	1337.732056
6863.251498	0.091124	0.308431	1422.295410
6863.252401	0.091088	0.308431	1504.547607
6863.253295	0.091091	0.308431	1585.983276
6863.254237	0.091117	0.308431	1671.815430
6863.255139	0.091110	0.308431	1753.996338
6863.256036	0.091022	0.308431	1835.642822
6863.256919	0.090941	0.308431	1915.943848
6863.257850	0.091208	0.308431	2000.859009
6864.326090	1.200476	0.314007	522.207092
6864.326979	0.736183	0.314007	1176.673584
6864.327933	0.093508	0.314007	1265.880493
6864.328838	0.091102	0.314007	1348.328125
6864.329727	0.091014	0.314007	1429.239990
6864.330658	0.091102	0.314007	1514.056274
6864.331559	0.091194	0.314007	1596.221924
6864.332460	0.090963	0.314007	1678.179687
6864.333346	0.091080	0.314007	1758.876831
6864.334280	0.091205	0.314007	1844.062134
6864.335180	0.091176	0.314007	1926.120117
6864.336086	0.091106	0.314007	2008.662109
6865.363408	1.216417	0.308657	541.305664
6865.364383	0.595994	0.308657	1122.399536
6865.365287	0.092648	0.308657	1206.153076
6865.366178	0.091047	0.308657	1287.276245
6865.367102	0.091080	0.308657	1371.434448
6865.367998	0.091219	0.308657	1453.167114
6865.368900	0.091150	0.308657	1535.384277
6865.369797	0.091084	0.308657	1617.086670
6865.370738	0.091146	0.308657	1702.855225
6865.371639	0.091117	0.308657	1784.951538
6865.372539	0.091154	0.308657	1866.989746
6865.373426	0.091099	0.308657	1947.794189
6866.439124	1.210701	0.316117	539.972534
6866.440025	0.711771	0.316117	1181.278442
6866.440975	0.094006	0.316117	1270.584473
6866.441875	0.091077	0.316117	1352.553467
6866.442767	0.091157	0.316117	1433.865723
6866.443650	0.091139	0.316117	1514.341431
6866.444583	0.091183	0.316117	1599.415039
6866.445491	0.090996	0.316117	1682.039551
6866.446388	0.091121	0.316117	1763.774780
6866.447276	0.091018	0.316117	1844.598877
6866.448222	0.091132	0.316117	1930.809326
6866.449132	0.091062	0.316117	2013.675781
6867.478500	1.236929	0.306027	565.276428
6867.479400	0.694314	0.306027	1190.158936
6867.480347	0.094010	0.306027	1279.186401
6867.481238	0.091121	0.306027	1360.374878
6867.482134	0.091102	0.306027	1442.002563
6867.483020	0.091132	0.306027	1522.745117
6867.483946	0.091271	0.306027	1607.261841
6867.484852	0.091154	0.306027	1689.846924
6867.485758	0.091190	0.306027	1772.465210
6867.486647	0.091165	0.306027	1853.510498
6867.487591	0.091260	0.306027	1939.659668
6867.488497	0.091095	0.306027	2022.191650
6868.553163	1.211645	0.319191	530.700745
6868.554153	0.580558	0.319191	1105.453125
6868.555066	0.092505	0.319191	1189.910034
6868.555957	0.091135	0.319191	1271.111572
6868.556901	0.091212	0.319191	1357.215820
6868.557797	0.091216	0.319191	1438.945190
6868.558694	0.091230	0.319191	1520.778931
6868.559584	0.091113	0.319191	1601.869751
6868.560523	0.091212	0.319191	1687.517944
6868.561431	0.091161	0.319191	1770.291992
6868.562332	0.091198	0.319191	1852.460937
6868.563221	0.091256	0.319191	1933.587646
6869.596111	1.201795	0.301205	528.789612
6869.597056	0.649457	0.301205	1142.526245
6869.597960	0.093193	0.301205	1226.773071
6869.598860	0.091132	0.301205	1308.791504
6869.599748	0.091102	0.301205	1389.690308
6869.600704	0.091157	0.301205	1476.836670
6869.601603	0.091091	0.301205	1558.727783
6869.602492	0.091102	0.301205	1639.717773
6869.603430	0.091219	0.301205	1725.281616
6869.604332	0.091205	0.301205	1807.548340
6869.605224	0.091124	0.301205	1888.831177
6869.606116	0.091066	0.301205	1970.061768
6870.662603	1.209463	0.325105	532.163696
6870.663500	0.712797	0.325105	1171.542236
6870.664458	0.093135	0.325105	1260.765381
6870.665366	0.091055	0.325105	1343.442993
6870.666252	0.091055	0.325105	1424.117432
6870.667195	0.091172	0.325105	1510.092529
6870.668097	0.091022	0.325105	1592.194092
6870.668991	0.091179	0.325105	1673.708252
6870.669875	0.091099	0.325105	1754.239502
6870.670807	0.091187	0.325105	1839.225342
6870.671714	0.091121	0.325105	1921.871704
6870.672619	0.091055	0.325105	2004.276245
6871.714788	1.226840	0.296830	552.077820
6871.715691	0.699961	0.296830	1184.142578
6871.716578	0.094131	0.296830	1267.636597
6871.717533	0.091176	0.296830	1354.709229
6871.718429	0.091077	0.296830	1436.313965
6871.719340	0.091282	0.296830	1519.471680
6871.720233	0.091110	0.296830	1600.832520
6871.721173	0.091168	0.296830	1686.530640
6871.722078	0.091106	0.296830	1768.981567
6871.722996	0.091157	0.296830	1852.663940
6871.723886	0.091274	0.296830	1933.898193
6871.724832	0.091132	0.296830	2020.108643
6872.774111	1.223009	0.328355	549.131104
6872.775016	0.702323	0.328355	1184.733398
6872.775898	0.094281	0.328355	1267.889282
6872.776842	0.091219	0.328355	1354.000488
6872.777749	0.091102	0.328355	1436.630249
6872.778652	0.091256	0.328355	1519.034546
6872.779539	0.091150	0.328355	1599.884521
6872.780503	0.091190	0.328355	1687.791870
6872.781409	0.091117	0.328355	1770.343872
6872.782298	0.091124	0.328355	1851.353394
6872.783233	0.091154	0.328355	1936.582031
6872.784142	0.091099	0.328355	2019.390747
6873.833953	1.240415	0.293080	566.869629
6873.834860	0.685309	0.293080	1188.444824
6873.835748	0.094006	0.293080	1271.922485
6873.836702	0.091176	0.293080	1358.903931
6873.837604	0.091234	0.293080	1441.197144
6873.838496	0.091172	0.293080	1522.522461
6873.839385	0.091040	0.293080	1603.457031
6873.840334	0.091249	0.293080	1690.052124
6873.841245	0.091047	0.293080	1772.996216
6873.842143	0.091234	0.293080	1854.924438
6873.843062	0.091194	0.293080	1938.731567
6873.843963	0.091146	0.293080	2020.854370
6874.884059	1.227825	0.332352	553.748962
6874.884965	0.690868	0.332352	1179.675293
6874.885851	0.094189	0.332352	1263.127197
6874.886821	0.091282	0.332352	1351.670532
6874.887732	0.091058	0.332352	1434.624634
6874.888630	0.091252	0.332352	1516.569336
6874.889565	0.091333	0.332352	1601.965698
6874.890471	0.091245	0.332352	1684.633789
6874.891369	0.091029	0.332352	1766.377930
6874.892254	0.091252	0.332352	1847.136353
6874.893194	0.091212	0.332352	1932.875732
6874.894087	0.091230	0.332352	2014.344482
6875.952588	1.205266	0.298256	532.727600
6875.953571	0.585542	0.298256	1108.315430
6875.954477	0.092662	0.298256	1192.267578
6875.955375	0.091113	0.298256	1274.087280
6875.956263	0.091223	0.298256	1355.093384
6875.957218	0.091157	0.298256	1442.148560
6875.958124	0.091106	0.298256	1524.690552
6875.959015	0.091187	0.298256	1605.937744
6875.959958	0.091187	0.298256	1691.926636
6875.960864	0.091190	0.298256	1774.544922
6875.961752	0.091124	0.298256	1855.463257
6875.962640	0.091194	0.298256	1936.443359
6876.995528	1.204438	0.329576	527.544067
6876.996517	0.588651	0.329576	1109.719971
6876.997427	0.092710	0.329576	1194.086060
6876.998323	0.091223	0.329576	1275.822021
6876.999243	0.091198	0.329576	1359.723755
6877.000147	0.091212	0.329576	1442.179565
6877.001058	0.091121	0.329576	1525.190430
6877.001957	0.091190	0.329576	1607.170410
6877.002878	0.091256	0.329576	1691.217285
6877.003786	0.091176	0.329576	1774.004639
6877.004695	0.091139	0.329576	1856.849854
6877.005619	0.091179	0.329576	1941.099487
6878.068172	1.209705	0.303948	533.479675
6878.069100	0.700444	0.303948	1183.491943
6878.070030	0.093219	0.303948	1270.185547
6878.070943	0.091091	0.303948	1353.351929
6878.071831	0.091168	0.303948	1434.309326
6878.072772	0.091179	0.303948	1520.109009
6878.073676	0.091201	0.303948	1602.554932
6878.074578	0.091245	0.303948	1684.858032
6878.075465	0.091146	0.303948	1765.704712
6878.076413	0.091289	0.303948	1852.246704
6878.077318	0.091223	0.303948	1934.803711
6878.078207	0.091252	0.303948	2015.927124
6879.110096	1.220350	0.327538	540.615234
6879.111003	0.711940	0.327538	1186.344482
6879.111890	0.094519	0.327538	1270.182861
6879.112860	0.091256	0.327538	1358.701294
6879.113764	0.091227	0.327538	1441.170288
6879.114668	0.091143	0.327538	1523.563232
6879.115563	0.091176	0.327538	1605.165283
6879.116504	0.091252	0.327538	1691.033813
6879.117415	0.091128	0.327538	1774.051392
6879.118302	0.091143	0.327538	1854.894897
6879.119235	0.091304	0.327538	1940.081299
6879.120146	0.091241	0.327538	2023.202271
6880.180692	1.219431	0.311948	545.085754
6880.181590	0.715719	0.311948	1187.801392
6880.182528	0.093984	0.311948	1275.958740
6880.183431	0.091223	0.311948	1358.333252
6880.184330	0.091132	0.311948	1440.260498
6880.185217	0.091106	0.311948	1521.071533
6880.186165	0.091249	0.311948	1607.575439
6880.187071	0.091179	0.311948	1690.183838
6880.187960	0.091201	0.311948	1771.261719
6880.188867	0.091198	0.311948	1853.977905
6880.189793	0.091135	0.311948	1938.369141
6880.190698	0.091183	0.311948	2020.889648
6881.229790	1.229118	0.319453	548.186401
6881.230707	0.693025	0.319453	1183.690186
6881.231626	0.093475	0.319453	1269.593994
6881.232522	0.091084	0.319453	1351.205200
6881.233465	0.091245	0.319453	1437.249390
6881.234357	0.091047	0.319453	1518.463623
6881.235249	0.091172	0.319453	1599.788940
6881.236179	0.091187	0.319453	1684.592407
6881.237102	0.091095	0.319453	1768.673096
6881.237999	0.091176	0.319453	1850.457520
6881.238889	0.091132	0.319453	1931.564697
6881.239829	0.091245	0.319453	2017.335083
6882.288094	1.227964	0.320561	555.039612
6882.288987	0.713969	0.320561	1192.613525
6882.289943	0.093413	0.320561	1281.916382
6882.290838	0.091011	0.320561	1363.370972
6882.291752	0.091132	0.320561	1446.665283
6882.292653	0.091179	0.320561	1528.817749
6882.293606	0.091128	0.320561	1615.662720
6882.294507	0.090967	0.320561	1697.623779
6882.295400	0.091179	0.320561	1779.046753
6882.296332	0.091223	0.320561	1864.066772
6882.297242	0.091165	0.320561	1947.026489
6882.298140	0.091146	0.320561	2028.875854
6883.350984	1.194983	0.309878	516.232605
6883.351919	0.718711	0.309878	1188.227295
6883.352829	0.093607	0.309878	1273.409790
6883.353740	0.091190	0.309878	1356.484009
6883.354629	0.091146	0.309878	1437.513062
6883.355574	0.091183	0.309878	1523.680908
6883.356470	0.091187	0.309878	1605.384033
6883.357369	0.091201	0.309878	1687.373901
6883.358255	0.091157	0.309878	1768.139160
6883.359201	0.091150	0.309878	1854.366943
6883.360106	0.091216	0.309878	1936.917236
6883.361005	0.091102	0.309878	2018.818237
6884.396497	1.215385	0.324843	538.415405
6884.397407	0.708084	0.324843	1182.771484
6884.398293	0.094373	0.324843	1266.385620
6884.399247	0.091183	0.324843	1353.374023
6884.400159	0.091073	0.324843	1436.432617
6884.401046	0.091095	0.324843	1517.233887
6884.401975	0.091135	0.324843	1601.898560
6884.402880	0.091223	0.324843	1684.455566
6884.403786	0.091132	0.324843	1767.020752
6884.404673	0.091088	0.324843	1847.815552
6884.405614	0.091201	0.324843	1933.635864
6884.406513	0.091146	0.324843	2015.576294
6885.471175	1.198052	0.312258	517.558350
6885.472132	0.647930	0.312258	1137.626953
6885.473035	0.093387	0.312258	1221.955811
6885.473930	0.091003	0.312258	1303.403809
6885.474812	0.091146	0.312258	1383.794800
6885.475760	0.091322	0.312258	1470.368042
6885.476662	0.091095	0.312258	1552.535645
6885.477554	0.091121	0.312258	1633.815186
6885.478487	0.091271	0.312258	1718.970825
6885.479390	0.091124	0.312258	1801.255981
6885.480291	0.091058	0.312258	1883.299561
6885.481180	0.091128	0.312258	1964.312256
6886.508497	1.208888	0.323687	530.701782
6886.509465	0.633970	0.323687	1144.384521
6886.510379	0.092985	0.323687	1229.372437
6886.511275	0.091091	0.323687	1310.990234
6886.512207	0.091157	0.323687	1395.948730
6886.513115	0.091124	0.323687	1478.689575
6886.514016	0.091139	0.323687	1560.805786
6886.514903	0.091110	0.323687	1641.619995
6886.515848	0.091267	0.323687	1727.867432
6886.516753	0.091176	0.323687	1810.381348
6886.517655	0.091289	0.323687	1892.724121
6886.518540	0.091201	0.323687	1973.437134
6887.586768	1.202688	0.321012	529.182739
6887.587686	0.703887	0.321012	1175.350708
6887.588583	0.094032	0.321012	1259.697388
6887.589528	0.091168	0.321012	1345.851318
6887.590445	0.091157	0.321012	1429.442505
6887.591371	0.091073	0.321012	1513.776123
6887.592260	0.091165	0.321012	1594.821411
6887.593206	0.091212	0.321012	1681.108154
6887.594100	0.091245	0.321012	1762.681274
6887.594989	0.091106	0.321012	1843.674438
6887.595919	0.091245	0.321012	1928.532349
6887.596818	0.091157	0.321012	2010.482666
6888.622038	1.213531	0.318506	532.740356
6888.622961	0.693761	0.318506	1173.081787
6888.623862	0.093801	0.318506	1257.596680
6888.624791	0.091212	0.318506	1342.332764
6888.625702	0.091198	0.318506	1425.413696
6888.626609	0.091091	0.318506	1508.033447
6888.627501	0.091036	0.318506	1589.237915
6888.628446	0.091263	0.318506	1675.481812
6888.629355	0.091183	0.318506	1758.367065
6888.630247	0.091055	0.318506	1839.587891
6888.631140	0.091150	0.318506	1920.984741
6888.632083	0.091238	0.318506	2007.021973
6889.700813	1.210770	0.323054	533.949707
6889.701775	0.618358	0.323054	1128.810303
6889.702679	0.092944	0.323054	1212.832031
6889.703585	0.091183	0.323054	1295.443726
6889.704470	0.091106	0.323054	1376.072510
6889.705423	0.091293	0.323054	1463.074463
6889.706324	0.091088	0.323054	1545.144409
6889.707210	0.091146	0.323054	1625.900024
6889.708151	0.091179	0.323054	1711.699707
6889.709051	0.091289	0.323054	1793.859863
6889.709943	0.091252	0.323054	1875.257080
6889.710830	0.091198	0.323054	1956.149292
6890.738658	1.227481	0.316561	556.048706
6890.739586	0.666376	0.316561	1174.445312
6890.740477	0.093505	0.316561	1257.757935
6890.741424	0.091227	0.316561	1344.149658
6890.742324	0.091205	0.316561	1426.234009
6890.743222	0.091201	0.316561	1508.132690
6890.744110	0.091047	0.316561	1588.982788
6890.745045	0.091230	0.316561	1674.283325
6890.745951	0.091187	0.316561	1756.898315
6890.746858	0.091066	0.316561	1839.494873
6890.747742	0.091058	0.316561	1919.990479
6890.748670	0.091216	0.316561	2004.638794
6891.812816	1.218117	0.325765	544.498108
6891.813717	0.711152	0.325765	1185.246338
6891.814655	0.094138	0.325765	1273.547974
6891.815562	0.091190	0.325765	1356.257446
6891.816466	0.091058	0.325765	1438.574219
6891.817354	0.091099	0.325765	1519.469849
6891.818299	0.091230	0.325765	1605.682617
6891.819194	0.091088	0.325765	1687.206055
6891.820088	0.091165	0.325765	1768.707153
6891.820995	0.091051	0.325765	1851.290405
6891.821928	0.091234	0.325765	1936.411865
6891.822835	0.091117	0.325765	2019.054932
6892.857288	1.194891	0.311223	516.193054
6892.858225	0.709684	0.311223	1181.166748
6892.859136	0.093428	0.311223	1266.279419
6892.860040	0.091172	0.311223	1348.698730
6892.860926	0.091183	0.311223	1429.486694
6892.861867	0.091245	0.311223	1515.348389
6892.862776	0.091077	0.311223	1598.137085
6892.863670	0.091194	0.311223	1679.664429
6892.864556	0.091161	0.311223	1760.432983
6892.865487	0.091223	0.311223	1845.361694
6892.866391	0.091201	0.311223	1927.807617
6892.867278	0.091124	0.311223	2008.634888
6893.922271	1.229084	0.327425	554.317078
6893.923184	0.678636	0.327425	1173.912109
6893.924096	0.093395	0.327425	1259.088135
6893.924995	0.091150	0.327425	1341.031860
6893.925957	0.091143	0.327425	1428.711060
6893.926859	0.091201	0.327425	1510.974487
6893.927746	0.091234	0.327425	1591.899170
6893.928671	0.091256	0.327425	1676.311035
6893.929578	0.091176	0.327425	1759.007202
6893.930500	0.091113	0.327425	1843.013672
6893.931388	0.091168	0.327425	1923.971069
6893.932361	0.091241	0.327425	2012.749023
6894.975445	1.229897	0.304576	552.223938
6894.976351	0.697833	0.304576	1184.460937
6894.977240	0.094102	0.304576	1268.117187
6894.978212	0.091198	0.304576	1356.761230
6894.979122	0.091208	0.304576	1439.760986
6894.980016	0.091088	0.304576	1521.193359
6894.980956	0.091205	0.304576	1606.925903
6894.981852	0.091263	0.304576	1688.697998
6894.982752	0.091077	0.304576	1770.666992
6894.983637	0.091216	0.304576	1851.392944
6894.984571	0.091267	0.304576	1936.636475
6894.985480	0.091194	0.304576	2019.531738
6896.035803	1.228198	0.337822	555.145630
6896.036702	0.707194	0.337822	1190.912598
6896.037654	0.093647	0.337822	1280.064941
6896.038565	0.091135	0.337822	1363.089111
6896.039463	0.091095	0.337822	1444.892334
6896.040351	0.091157	0.337822	1525.839966
6896.041293	0.091168	0.337822	1611.720459
6896.042186	0.091150	0.337822	1693.117310
6896.043084	0.091161	0.337822	1774.979736
6896.044006	0.091234	0.337822	1859.097656
6896.044919	0.091205	0.337822	1942.367676
6896.045832	0.091106	0.337822	2025.547363
6897.089996	1.212078	0.302635	535.738342
6897.090982	0.588413	0.302635	1115.913696
6897.091886	0.092655	0.302635	1199.673828
6897.092785	0.091102	0.302635	1281.574829
6897.093668	0.091307	0.302635	1362.199219
6897.094601	0.091234	0.302635	1447.320679
6897.095509	0.091172	0.302635	1530.104736
6897.096402	0.091190	0.302635	1611.537598
6897.097335	0.091249	0.302635	1696.672729
6897.098243	0.091238	0.302635	1779.516602
6897.099151	0.091102	0.302635	1862.237549
6897.100039	0.091205	0.302635	1943.227417
6898.149839	1.204094	0.335143	527.393311
6898.150733	0.726119	0.335143	1176.544067
6898.151685	0.093402	0.335143	1265.462891
6898.152586	0.091179	0.335143	1347.615356
6898.153476	0.091304	0.335143	1428.875610
6898.154415	0.091271	0.335143	1514.578857
6898.155310	0.091260	0.335143	1596.256348
6898.156214	0.091249	0.335143	1678.745239
6898.157104	0.091124	0.335143	1759.845825
6898.158046	0.091194	0.335143	1845.750488
6898.158955	0.091077	0.335143	1928.539185
6898.159854	0.091212	0.335143	2010.538940
6899.204114	1.291739	0.304717	649.744934
6899.205028	0.596056	0.304717	1194.540039
6899.205925	0.092736	0.304717	1277.723877
6899.206835	0.091135	0.304717	1360.656982
6899.207727	0.091168	0.304717	1441.979004
6899.208664	0.091055	0.304717	1527.297241
6899.209570	0.091080	0.304717	1609.816040
6899.210492	0.091088	0.304717	1693.798828
6899.211383	0.091157	0.304717	1775.019897
6899.212337	0.091055	0.304717	1861.886108
6899.213260	0.091102	0.304717	1945.973511
6899.214150	0.091179	0.304717	2027.123047
6900.264908	1.208892	0.337979	529.494507
6900.265814	0.723278	0.337979	1184.784058
6900.266702	0.094706	0.337979	1268.882812
6900.267662	0.091135	0.337979	1356.372681
6900.268573	0.091198	0.337979	1439.453613
6900.269463	0.091208	0.337979	1520.629150
6900.270389	0.091172	0.337979	1605.054321
6900.271298	0.091326	0.337979	1688.069336
6900.272192	0.091135	0.337979	1769.544189
6900.273084	0.091121	0.337979	1850.823730
6900.274017	0.091278	0.337979	1935.986206
6900.274921	0.091201	0.337979	2018.432129
6901.318610	1.217780	0.308834	543.129639
6901.319512	0.710863	0.308834	1184.328125
6901.320453	0.093831	0.308834	1272.622681
6901.321358	0.091150	0.308834	1355.113281
6901.322258	0.091040	0.308834	1437.049316
6901.323141	0.091007	0.308834	1517.408569
6901.324095	0.091219	0.308834	1604.432007
6901.325003	0.091172	0.308834	1687.216064
6901.325889	0.091267	0.308834	1768.078735
6901.326814	0.091187	0.308834	1852.426270
6901.327728	0.091256	0.308834	1935.834351
6901.328637	0.091029	0.308834	2018.579712
6902.380032	1.221365	0.335510	598.468750
6902.380968	0.574911	0.335510	1136.585449
6902.381873	0.092633	0.335510	1220.418335
6902.382768	0.091252	0.335510	1302.089233
6902.383706	0.091256	0.335510	1387.687500
6902.384611	0.091117	0.335510	1470.148315
6902.385509	0.091124	0.335510	1551.977905
6902.386396	0.091227	0.335510	1632.896118
6902.387327	0.091285	0.335510	1717.882812
6902.388234	0.091223	0.335510	1800.622192
6902.389127	0.091241	0.335510	1882.100830
6902.390068	0.091234	0.335510	1967.952148
6903.432153	1.219098	0.311719	549.813171
6903.433052	0.707673	0.311719	1186.011475
6903.433998	0.093889	0.311719	1274.830566
6903.434905	0.091201	0.311719	1357.550049
6903.435804	0.091168	0.311719	1439.510254
6903.436697	0.091271	0.311719	1521.015015
6903.437645	0.091165	0.311719	1607.438965
6903.438547	0.091150	0.311719	1689.656128
6903.439434	0.091161	0.311719	1770.515869
6903.440358	0.091205	0.311719	1854.789185
6903.441279	0.091062	0.311719	1938.657349
6903.442173	0.091183	0.311719	2020.174805
6904.496072	1.201666	0.332585	527.531494
6904.496964	0.735516	0.332585	1183.612061
6904.497925	0.093168	0.332585	1273.146240
6904.498827	0.091091	0.332585	1355.310547
6904.499713	0.091143	0.332585	1436.062866
6904.500620	0.091139	0.332585	1518.725830
6904.501545	0.091058	0.332585	1602.954834
6904.502445	0.091139	0.332585	1684.979858
6904.503332	0.091187	0.332585	1765.862305
6904.504258	0.091183	0.332585	1850.297607
6904.505165	0.091172	0.332585	1932.990479
6904.506088	0.091154	0.332585	2017.125244
6905.544159	1.227869	0.311606	557.452393
6905.545060	0.699265	0.311606	1187.490234
6905.545951	0.094109	0.311606	1271.341309
6905.546896	0.091223	0.311606	1357.547119
6905.547805	0.091150	0.311606	1440.402344
6905.548713	0.091154	0.311606	1523.169800
6905.549618	0.091168	0.311606	1605.677002
6905.550553	0.091172	0.311606	1690.922729
6905.551455	0.091194	0.311606	1773.179565
6905.552344	0.091172	0.311606	1854.231323
6905.553279	0.091263	0.311606	1939.562622
6905.554179	0.091205	0.311606	2021.646973
6906.613723	1.222006	0.331647	543.792480
6906.614642	0.692604	0.331647	1180.295410
6906.615540	0.093812	0.331647	1264.538818
6906.616474	0.091190	0.331647	1349.710449
6906.617379	0.091176	0.331647	1432.224365
6906.618278	0.091055	0.331647	1514.082520
6906.619164	0.091066	0.331647	1594.766724
6906.620115	0.091260	0.331647	1681.554810
6906.621013	0.091183	0.331647	1763.437012
6906.621917	0.091179	0.331647	1845.863037
6906.622803	0.091201	0.331647	1926.667236
6906.623721	0.091205	0.331647	2010.393311
6907.655626	1.205548	0.315876	528.030029
6907.656610	0.587432	0.315876	1106.062744
6907.657513	0.092695	0.315876	1189.766602
6907.658412	0.091139	0.315876	1271.700439
6907.659297	0.090978	0.315876	1352.215820
6907.660246	0.091208	0.315876	1438.772705
6907.661144	0.091227	0.315876	1520.694336
6907.662039	0.091139	0.315876	1602.263672
6907.662961	0.091139	0.315876	1686.293701
6907.663866	0.091205	0.315876	1768.834106
6907.664767	0.091198	0.315876	1851.003052
6907.665652	0.091227	0.315876	1931.738770
6908.730835	1.219852	0.331767	544.054138
6908.731733	0.715847	0.331767	1186.885010
6908.732647	0.094442	0.331767	1273.205078
6908.733590	0.091179	0.331767	1359.187012
6908.734500	0.091205	0.331767	1442.183350
6908.735396	0.091241	0.331767	1523.935669
6908.736320	0.091267	0.331767	1608.266479
6908.737221	0.091154	0.331767	1690.395874
6908.738132	0.091176	0.331767	1773.456787
6908.739028	0.091219	0.331767	1855.189453
6908.739969	0.091150	0.331767	1940.961548
6908.740877	0.091194	0.331767	2023.765625
6909.768651	1.207991	0.325943	531.515930
6909.769543	0.719088	0.325943	1172.942627
6909.770517	0.093058	0.325943	1263.580933
6909.771410	0.091102	0.325943	1344.935303
6909.772297	0.091154	0.325943	1425.788574
6909.773237	0.091132	0.325943	1511.452271
6909.774136	0.091058	0.325943	1593.313721
6909.775036	0.091154	0.325943	1675.351929
6909.775927	0.091047	0.325943	1756.475098
6909.776863	0.091172	0.325943	1841.812012
6909.777772	0.091066	0.325943	1924.590698
6909.778677	0.091168	0.325943	2007.097900
6910.845393	1.204120	0.326909	528.608582
6910.846289	0.734718	0.326909	1186.916016
6910.847241	0.093296	0.326909	1275.733765
6910.848141	0.091110	0.326909	1357.732422
6910.849068	0.091132	0.326909	1442.211426
6910.849960	0.091040	0.326909	1523.419189
6910.850907	0.091062	0.326909	1609.654907
6910.851803	0.091099	0.326909	1691.279297
6910.852690	0.091084	0.326909	1772.070801
6910.853618	0.091150	0.326909	1856.657959
6910.854515	0.091084	0.326909	1938.360352
6910.855436	0.091077	0.326909	2022.241943
6911.884245	1.221039	0.334015	547.025391
6911.885148	0.704886	0.334015	1183.537842
6911.886095	0.093629	0.334015	1272.204590
6911.887010	0.091212	0.334015	1355.663696
6911.887910	0.091132	0.334015	1437.682129
6911.888800	0.091025	0.334015	1518.694702
6911.889756	0.091234	0.334015	1605.914551
6911.890660	0.091165	0.334015	1688.327271
6911.891552	0.091143	0.334015	1769.626465
6911.892483	0.091227	0.334015	1854.558594
6911.893383	0.091194	0.334015	1936.633057
6911.894284	0.091117	0.334015	2018.729370
6912.957896	1.209181	0.320283	532.039612
6912.958790	0.715869	0.320283	1172.026611
6912.959761	0.092900	0.320283	1262.232910
6912.960672	0.091044	0.320283	1345.173706
6912.961569	0.091069	0.320283	1426.862915
6912.962501	0.091161	0.320283	1511.824829
6912.963404	0.091099	0.320283	1594.086914
6912.964313	0.091201	0.320283	1676.988770
6912.965201	0.091091	0.320283	1757.877808
6912.966145	0.091223	0.320283	1843.992432
6912.967043	0.091113	0.320283	1925.812134
6912.967936	0.090989	0.320283	2007.065063
6914.001874	1.215963	0.333971	536.239746
6914.002859	0.595426	0.333971	1122.734375
6914.003770	0.092827	0.333971	1207.299927
6914.004662	0.091139	0.333971	1288.595825
6914.005599	0.091223	0.333971	1374.071899
6914.006504	0.091223	0.333971	1456.628906
6914.007406	0.091139	0.333971	1538.836182
6914.008305	0.091282	0.333971	1620.898437
6914.009233	0.091205	0.333971	1705.536499
6914.010147	0.091234	0.333971	1788.924438
6914.011054	0.091113	0.333971	1871.564209
6914.011943	0.091183	0.333971	1952.625732
6915.067848	1.195975	0.326660	516.661316
6915.068796	0.716638	0.326660	1196.034424
6915.069705	0.093285	0.326660	1280.830444
6915.070616	0.091146	0.326660	1363.864624
6915.071514	0.091161	0.326660	1445.727051
6915.072451	0.091201	0.326660	1531.182495
6915.073351	0.091176	0.326660	1613.240479
6915.074249	0.091135	0.326660	1695.079956
6915.075134	0.091212	0.326660	1775.802734
6915.076067	0.091198	0.326660	1860.890015
6915.076977	0.091095	0.326660	1943.786377
6915.077874	0.091249	0.326660	2025.636475
6916.121557	1.213821	0.328633	536.508789
6916.122456	0.719821	0.328633	1183.627441
6916.123399	0.093146	0.328633	1271.463867
6916.124324	0.091069	0.328633	1355.703003
6916.125218	0.091157	0.328633	1437.197510
6916.126128	0.091135	0.328633	1520.130615
6916.127069	0.091117	0.328633	1605.871704
6916.127967	0.091022	0.328633	1687.609253
6916.128859	0.091172	0.328633	1768.934570
6916.129809	0.091205	0.328633	1855.579102
6916.130703	0.091088	0.328633	1937.011475
6916.131626	0.091110	0.328633	2021.105713
6917.176785	1.214553	0.329008	539.261658
6917.177687	0.717081	0.329008	1186.068970
6917.178619	0.094395	0.329008	1274.044678
6917.179526	0.091073	0.329008	1356.647949
6917.180435	0.090963	0.329008	1439.333496
6917.181326	0.091132	0.329008	1520.531738
6917.182253	0.091154	0.329008	1605.031128
6917.183153	0.091117	0.329008	1687.036377
6917.184050	0.091139	0.329008	1768.787964
6917.184939	0.091117	0.329008	1849.790894
6917.185886	0.091219	0.329008	1936.175781
6917.186797	0.091073	0.329008	2019.143311
6918.241788	1.227858	0.327888	601.650208
6918.242733	0.559468	0.327888	1130.347290
6918.243645	0.092238	0.327888	1214.467896
6918.244544	0.091102	0.327888	1296.368896
6918.245476	0.091139	0.327888	1381.310303
6918.246378	0.091128	0.327888	1463.507690
6918.247283	0.091117	0.327888	1545.968506
6918.248169	0.091106	0.327888	1626.688354
6918.249117	0.091219	0.327888	1713.164429
6918.250023	0.091179	0.327888	1795.772827
6918.250914	0.091150	0.327888	1876.987427
6918.251833	0.091165	0.327888	1960.767700
6919.286763	1.253408	0.333322	590.355286
6919.287659	0.683027	0.333322	1202.347778
6919.288611	0.093585	0.333322	1291.440918
6919.289513	0.091190	0.333322	1373.694458
6919.290409	0.091179	0.333322	1455.390991
6919.291295	0.091040	0.333322	1536.052490
6919.292232	0.091252	0.333322	1621.556030
6919.293145	0.091168	0.333322	1704.792603
6919.294042	0.091106	0.333322	1786.514648
6919.294954	0.091143	0.333322	1869.636719
6919.295875	0.091194	0.333322	1953.626221
6919.296779	0.091099	0.333322	2035.979370
6920.358877	1.226404	0.323848	544.523315
6920.359811	0.661311	0.323848	1162.187744
6920.360709	0.093439	0.323848	1246.095703
6920.361631	0.091241	0.323848	1330.220337
6920.362537	0.091205	0.323848	1412.851929
6920.363443	0.091278	0.323848	1495.549805
6920.364335	0.091267	0.323848	1576.960083
6920.365274	0.091282	0.323848	1662.673584
6920.366175	0.091190	0.323848	1744.835937
6920.367066	0.091230	0.323848	1826.122314
6920.367955	0.091154	0.323848	1907.157837
6920.368885	0.091208	0.323848	1991.981689
6921.400273	1.211085	0.347015	536.510742
6921.401172	0.720161	0.347015	1183.935547
6921.402121	0.094120	0.347015	1273.255249
6921.403035	0.091183	0.347015	1356.596436
6921.403939	0.091069	0.347015	1438.923096
6921.404833	0.091051	0.347015	1520.322754
6921.405788	0.091183	0.347015	1607.402344
6921.406677	0.091077	0.347015	1688.369507
6921.407598	0.091080	0.347015	1772.254517
6921.408495	0.091036	0.347015	1853.914185
6921.409426	0.090996	0.347015	1938.631592
6921.410325	0.091172	0.347015	2020.595093
6922.472957	1.265189	0.315783	618.677490
6922.473881	0.604438	0.315783	1177.178711
6922.474813	0.092377	0.315783	1263.273804
6922.475704	0.091091	0.315783	1344.436157
6922.476651	0.091194	0.315783	1430.796753
6922.477574	0.091161	0.315783	1514.938232
6922.478463	0.091073	0.315783	1595.902100
6922.479378	0.091029	0.315783	1679.193726
6922.480312	0.091029	0.315783	1764.214844
6922.481219	0.091117	0.315783	1846.857910
6922.482120	0.091252	0.315783	1929.076416
6922.483056	0.091124	0.315783	2014.368774
6923.516886	1.213967	0.352086	536.573486
6923.517784	0.702730	0.352086	1167.624512
6923.518741	0.093182	0.352086	1256.800049
6923.519660	0.091121	0.352086	1340.539917
6923.520548	0.091117	0.352086	1421.451782
6923.521478	0.091128	0.352086	1506.200806
6923.522384	0.091223	0.352086	1588.848999
6923.523289	0.091157	0.352086	1671.346313
6923.524179	0.091102	0.352086	1752.427368
6923.525118	0.091208	0.352086	1838.072144
6923.526017	0.091058	0.352086	1919.933594
6923.526921	0.091022	0.352086	2002.217285
6924.585941	1.215146	0.315018	543.170471
6924.586843	0.713390	0.315018	1186.648193
6924.587753	0.094438	0.315018	1272.587158
6924.588679	0.091154	0.315018	1356.995361
6924.589574	0.091084	0.315018	1438.515503
6924.590467	0.091084	0.315018	1519.853516
6924.591409	0.091154	0.315018	1605.720215
6924.592316	0.091099	0.315018	1688.346680
6924.593210	0.091073	0.315018	1769.765991
6924.594100	0.091187	0.315018	1850.921997
6924.595042	0.091172	0.315018	1936.805908
6924.595952	0.091091	0.315018	2019.698975
6925.633485	1.201007	0.349363	523.639038
6925.634381	0.736069	0.349363	1183.157227
6925.635335	0.093274	0.349363	1272.140503
6925.636250	0.091124	0.349363	1355.519165
6925.637151	0.091154	0.349363	1437.648560
6925.638096	0.091190	0.349363	1523.823242
6925.638995	0.091194	0.349363	1605.806519
6925.639893	0.091047	0.349363	1687.567017
6925.640783	0.091106	0.349363	1768.651367
6925.641726	0.091205	0.349363	1854.657471
6925.642632	0.091157	0.349363	1937.245850
6925.643529	0.091176	0.349363	2019.030273
6926.697940	1.220823	0.317088	546.928589
6926.698913	0.587988	0.317088	1119.041138
6926.699821	0.092571	0.317088	1203.095459
6926.700717	0.091139	0.317088	1284.755981
6926.701659	0.091212	0.317088	1370.677856
6926.702565	0.091183	0.317088	1453.289551
6926.703459	0.091187	0.317088	1534.810303
6926.704346	0.091077	0.317088	1615.595337
6926.705287	0.091208	0.317088	1701.422485
6926.706193	0.091000	0.317088	1783.868286
6926.707085	0.091212	0.317088	1865.229492
6926.707988	0.091150	0.317088	1947.537842
6927.751182	1.285968	0.348392	648.127930
6927.752101	0.588787	0.348392	1189.222900
6927.753001	0.092725	0.348392	1272.675049
6927.753890	0.091102	0.348392	1353.665039
6927.754817	0.091230	0.348392	1438.235718
6927.755729	0.091190	0.348392	1521.401123
6927.756627	0.091198	0.348392	1603.296509
6927.757558	0.091201	0.348392	1688.204834
6927.758475	0.091212	0.348392	1771.846436
6927.759371	0.091143	0.348392	1853.510132
6927.760299	0.091179	0.348392	1938.124390
6927.761214	0.091212	0.348392	2021.583496
6928.809427	1.206753	0.316021	533.384766
6928.810318	0.732968	0.316021	1186.458862
6928.811253	0.093636	0.316021	1274.008911
6928.812157	0.091080	0.316021	1356.345459
6928.813067	0.091168	0.316021	1439.308594
6928.813972	0.091128	0.316021	1521.779419
6928.814896	0.091234	0.316021	1606.079712
6928.815801	0.091066	0.316021	1688.494141
6928.816694	0.091106	0.316021	1769.851807
6928.817635	0.091161	0.316021	1855.634155
6928.818533	0.091187	0.316021	1937.519653
6928.819428	0.091110	0.316021	2019.062744
6929.868754	1.217553	0.347764	545.463562
6929.869649	0.719110	0.347764	1189.067139
6929.870566	0.094662	0.347764	1275.872070
6929.871490	0.091260	0.347764	1360.196045
6929.872397	0.091179	0.347764	1442.895630
6929.873296	0.091036	0.347764	1524.737305
6929.874222	0.091212	0.347764	1609.199707
6929.875123	0.091187	0.347764	1691.358765
6929.876024	0.091069	0.347764	1773.412231
6929.876909	0.091146	0.347764	1854.076660
6929.877853	0.091230	0.347764	1940.198242
6929.878758	0.091179	0.347764	2022.715454
6930.921429	1.216886	0.316327	539.080444
6930.922349	0.683698	0.316327	1168.082153
6930.923243	0.093867	0.316327	1251.999390
6930.924180	0.091187	0.316327	1337.441162
6930.925086	0.091194	0.316327	1420.062744
6930.925989	0.091219	0.316327	1502.433960
6930.926876	0.091062	0.316327	1583.205933
6930.927823	0.091278	0.316327	1669.646240
6930.928725	0.091084	0.316327	1751.803955
6930.929617	0.091150	0.316327	1833.109619
6930.930547	0.091121	0.316327	1917.851807
6930.931454	0.091088	0.316327	2000.468262
6931.984381	1.253536	0.350330	614.232788
6931.985309	0.604819	0.350330	1175.505127
6931.986199	0.092900	0.350330	1258.186523
6931.987087	0.091106	0.350330	1339.088623
6931.988031	0.091157	0.350330	1425.140991
6931.988934	0.090992	0.350330	1507.307129
6931.989837	0.091084	0.350330	1589.555908
6931.990732	0.091099	0.350330	1671.089233
6931.991669	0.091139	0.350330	1756.486450
6931.992573	0.091025	0.350330	1838.773437
6931.993460	0.091168	0.350330	1919.639648
6931.994394	0.091168	0.350330	2004.790771
6933.034972	1.229971	0.322881	548.566956
6933.035883	0.690234	0.322881	1177.370483
6933.036768	0.094164	0.322881	1260.705444
6933.037717	0.091183	0.322881	1347.238037
6933.038622	0.091117	0.322881	1429.698853
6933.039510	0.091176	0.322881	1510.662720
6933.040447	0.091190	0.322881	1596.107910
6933.041353	0.091124	0.322881	1678.666504
6933.042256	0.091216	0.322881	1761.034424
6933.043144	0.091088	0.322881	1841.920288
6933.044090	0.091172	0.322881	1928.168945
6933.044986	0.091198	0.322881	2009.881958
6934.099911	1.207742	0.345975	526.575378
6934.100883	0.611792	0.345975	1121.237183
6934.101796	0.092794	0.345975	1205.958252
6934.102693	0.091073	0.345975	1287.650757
6934.103618	0.091172	0.345975	1371.984741
6934.104519	0.091194	0.345975	1454.150391
6934.105417	0.091066	0.345975	1535.927368
6934.106302	0.091036	0.345975	1616.494507
6934.107250	0.091117	0.345975	1702.873413
6934.108147	0.091051	0.345975	1784.546143
6934.109049	0.091084	0.345975	1866.703857
6934.109937	0.091095	0.345975	1947.596191
6935.150065	1.228151	0.325366	589.512329
6935.151003	0.597784	0.325366	1150.234131
6935.151915	0.092684	0.325366	1234.762207
6935.152805	0.091069	0.325366	1315.813965
6935.153753	0.091219	0.325366	1402.290039
6935.154649	0.091150	0.325366	1483.960327
6935.155545	0.091227	0.325366	1565.699585
6935.156436	0.091124	0.325366	1646.891357
6935.157384	0.091165	0.325366	1733.315308
6935.158292	0.091187	0.325366	1816.112671
6935.159191	0.091113	0.325366	1898.023560
6935.160115	0.091212	0.325366	1982.303589
6936.214012	1.260802	0.346857	612.749817
6936.214942	0.599396	0.346857	1170.187866
6936.215840	0.092765	0.346857	1253.490723
6936.216726	0.091047	0.346857	1334.158691
6936.217674	0.091216	0.346857	1420.631348
6936.218575	0.091062	0.346857	1502.678223
6936.219465	0.091088	0.346857	1583.746216
6936.220366	0.091143	0.346857	1665.865723
6936.221279	0.091150	0.346857	1749.085571
6936.222184	0.091011	0.346857	1831.450317
6936.223078	0.091088	0.346857	1912.882690
6936.224000	0.091223	0.346857	1996.990479
6937.265610	1.201977	0.322188	521.658203
6937.266529	0.718400	0.322188	1181.867432
6937.267456	0.093384	0.322188	1268.434204
6937.268358	0.091106	0.322188	1350.611816
6937.269258	0.091198	0.322188	1432.689575
6937.270194	0.091143	0.322188	1517.999023
6937.271088	0.091183	0.322188	1599.516479
6937.271984	0.091183	0.322188	1681.216309
6937.272869	0.091113	0.322188	1761.851562
6937.273801	0.091198	0.322188	1846.847656
6937.274705	0.091198	0.322188	1929.290161
6937.275602	0.091121	0.322188	2011.025391
6938.326531	1.230908	0.351381	611.761353
6938.327448	0.618604	0.351381	1179.020752
6938.328341	0.092988	0.351381	1262.059326
6938.329230	0.091091	0.351381	1343.039551
6938.330172	0.091227	0.351381	1428.975220
6938.331078	0.091146	0.351381	1511.553711
6938.331983	0.091165	0.351381	1594.057617
6938.332870	0.091179	0.351381	1674.933594
6938.333811	0.091296	0.351381	1760.843506
6938.334721	0.091139	0.351381	1843.779907
6938.335616	0.091146	0.351381	1925.355835
6938.336565	0.091263	0.351381	2011.964844
6939.381215	1.231436	0.319848	556.608887
6939.382115	0.704022	0.319848	1190.228882
6939.383046	0.094274	0.319848	1277.997681
6939.383948	0.091183	0.319848	1360.244629
6939.384855	0.091062	0.319848	1442.837891
6939.385745	0.091157	0.319848	1523.967773
6939.386673	0.091172	0.319848	1608.575317
6939.387572	0.091157	0.319848	1690.525635
6939.388476	0.091143	0.319848	1772.918579
6939.389365	0.091168	0.319848	1853.967163
6939.390318	0.091227	0.319848	1940.906250
6939.391226	0.091128	0.319848	2023.650391
6940.440061	1.231304	0.356683	604.570190
6940.440993	0.575076	0.356683	1140.540771
6940.441898	0.092512	0.356683	1224.264282
6940.442787	0.091088	0.356683	1305.241211
6940.443745	0.091157	0.356683	1392.569824
6940.444650	0.091088	0.356683	1475.004150
6940.445551	0.091154	0.356683	1557.133545
6940.446440	0.091095	0.356683	1638.116943
6940.447364	0.091047	0.356683	1722.244751
6940.448270	0.091040	0.356683	1804.727051
6940.449158	0.091033	0.356683	1885.564087
6940.450079	0.091135	0.356683	1969.499634
6941.497361	1.299232	0.319376	660.009949
6941.498281	0.582554	0.319376	1195.959351
6941.499207	0.092161	0.319376	1281.300049
6941.500095	0.091150	0.319376	1362.241211
6941.501045	0.091234	0.319376	1448.913574
6941.501936	0.091172	0.319376	1530.147705
6941.502825	0.091179	0.319376	1611.206055
6941.503755	0.091165	0.319376	1695.989136
6941.504656	0.091212	0.319376	1778.171265
6941.505580	0.091036	0.319376	1862.288818
6941.506465	0.091157	0.319376	1942.963013
6941.507418	0.091139	0.319376	2029.818359
6942.552527	1.221438	0.352747	538.654175
6942.553495	0.612466	0.352747	1131.520996
6942.554404	0.092816	0.352747	1215.890869
6942.555300	0.091047	0.352747	1297.469360
6942.556232	0.091249	0.352747	1382.513184
6942.557143	0.091183	0.352747	1465.580811
6942.558045	0.091187	0.352747	1547.831055
6942.558933	0.091113	0.352747	1628.739624
6942.559879	0.091223	0.352747	1715.036743
6942.560778	0.091135	0.352747	1796.967285
6942.561676	0.091113	0.352747	1878.786987
6942.562571	0.091135	0.352747	1960.353027
6943.615443	1.213517	0.321028	536.374451
6943.616405	0.621182	0.321028	1133.951172
6943.617307	0.092922	0.321028	1217.767090
6943.618202	0.091113	0.321028	1299.313477
6943.619084	0.091110	0.321028	1379.672119
6943.620023	0.091084	0.321028	1465.199951
6943.620934	0.091135	0.321028	1548.224121
6943.621831	0.091143	0.321028	1629.979004
6943.622767	0.091154	0.321028	1715.298706
6943.623674	0.091146	0.321028	1797.968384
6943.624575	0.091095	0.321028	1880.044922
6943.625466	0.091113	0.321028	1961.226807
6944.663509	1.214180	0.358362	536.667419
6944.664413	0.722435	0.358362	1189.748901
6944.665300	0.094519	0.358362	1273.587280
6944.666233	0.091183	0.358362	1358.660889
6944.667137	0.091033	0.358362	1440.954468
6944.668035	0.091150	0.358362	1522.807129
6944.668925	0.091139	0.358362	1603.920776
6944.669871	0.091183	0.358362	1690.179810
6944.670781	0.091113	0.358362	1773.092896
6944.671668	0.091106	0.358362	1853.903931
6944.672596	0.091165	0.358362	1938.504639
6944.673506	0.091161	0.358362	2021.461060
6945.732558	1.223661	0.320408	544.529114
6945.733541	0.578987	0.320408	1113.673096
6945.734440	0.092681	0.320408	1196.993042
6945.735330	0.091091	0.320408	1278.064331
6945.736266	0.091135	0.320408	1363.366943
6945.737173	0.091132	0.320408	1446.023315
6945.738081	0.091040	0.320408	1528.687622
6945.738972	0.090963	0.320408	1609.735718
6945.739899	0.091150	0.320408	1694.231689
6945.740809	0.091157	0.320408	1777.184814
6945.741712	0.091095	0.320408	1859.443604
6945.742600	0.091139	0.320408	1940.375000
6946.776013	1.214085	0.358761	535.411255
6946.776966	0.682346	0.358761	1185.687134
6946.777883	0.092985	0.358761	1270.953979
6946.778803	0.091073	0.358761	1354.741089
6946.779691	0.091088	0.358761	1435.626953
6946.780633	0.091044	0.358761	1521.390137
6946.781546	0.091194	0.358761	1604.650146
6946.782463	0.091187	0.358761	1688.268188
6946.783355	0.091073	0.358761	1769.505249
6946.784300	0.091172	0.358761	1855.662720
6946.785224	0.091139	0.358761	1939.875122
6946.786115	0.091146	0.358761	2021.086426
6947.848141	1.204911	0.324255	524.136230
6947.849081	0.670737	0.324255	1154.629395
6947.849996	0.093138	0.324255	1239.851074
6947.850901	0.091212	0.324255	1322.398071
6947.851788	0.091201	0.324255	1403.293457
6947.852737	0.091190	0.324255	1489.832886
6947.853636	0.091168	0.324255	1571.793091
6947.854529	0.091165	0.324255	1653.203003
6947.855444	0.091139	0.324255	1736.595093
6947.856360	0.091198	0.324255	1820.131958
6947.857262	0.091000	0.324255	1902.213745
6947.858155	0.091113	0.324255	1983.577881
6948.890583	1.226638	0.351905	550.760559
6948.891496	0.694779	0.351905	1185.093750
6948.892429	0.093157	0.351905	1272.009033
6948.893335	0.091066	0.351905	1354.514526
6948.894238	0.091190	0.351905	1436.859253
6948.895123	0.091208	0.351905	1517.578735
6948.896068	0.091205	0.351905	1603.767334
6948.896978	0.091249	0.351905	1686.803711
6948.897870	0.091183	0.351905	1768.138794
6948.898804	0.091139	0.351905	1853.262573
6948.899709	0.091245	0.351905	1935.839355
6948.900607	0.091029	0.351905	2017.583496
6949.961673	1.213451	0.333286	533.918457
6949.962652	0.608412	0.333286	1129.553711
6949.963564	0.092618	0.333286	1214.021729
6949.964456	0.091201	0.333286	1295.373169
6949.965393	0.091168	0.333286	1380.797729
6949.966304	0.091216	0.333286	1463.895386
6949.967204	0.091055	0.333286	1545.844604
6949.968091	0.091117	0.333286	1626.665283
6949.969029	0.091157	0.333286	1712.170776
6949.969926	0.091132	0.333286	1793.915771
6949.970828	0.091110	0.333286	1876.096680
6949.971714	0.091179	0.333286	1956.881470
6951.007196	1.219453	0.343268	549.973389
6951.008089	0.711665	0.343268	1185.490234
6951.009048	0.093062	0.343268	1274.736206
6951.009944	0.091183	0.343268	1356.436035
6951.010846	0.091183	0.343268	1438.682983
6951.011753	0.091102	0.343268	1521.312744
6951.012683	0.091165	0.343268	1606.095825
6951.013590	0.091011	0.343268	1688.642578
6951.014490	0.091099	0.343268	1770.631348
6951.015408	0.091183	0.343268	1854.337158
6951.016308	0.091187	0.343268	1936.405029
6951.017201	0.091154	0.343268	2017.805176
6952.073185	1.227118	0.341883	557.111511
6952.074091	0.691743	0.341883	1183.830811
6952.075003	0.094036	0.341883	1269.591309
6952.075923	0.091216	0.341883	1353.509888
6952.076826	0.091084	0.341883	1435.758667
6952.077717	0.091077	0.341883	1516.907959
6952.078664	0.091139	0.341883	1603.216553
6952.079560	0.091128	0.341883	1684.867187
6952.080454	0.091025	0.341883	1766.243896
6952.081343	0.091190	0.341883	1847.312012
6952.082284	0.091230	0.341883	1933.159912
6952.083190	0.091150	0.341883	2015.741699
6953.126360	1.219200	0.335196	541.325012
6953.127270	0.705271	0.335196	1183.121582
6953.128152	0.094219	0.335196	1266.222534
6953.129089	0.091168	0.335196	1351.647095
6953.130003	0.091066	0.335196	1434.881104
6953.130911	0.091135	0.335196	1517.631958
6953.131802	0.091194	0.335196	1598.885620
6953.132748	0.091183	0.335196	1685.144653
6953.133658	0.091150	0.335196	1768.091064
6953.134548	0.091176	0.335196	1849.237305
6953.135478	0.091179	0.335196	1934.033936
6953.136376	0.091106	0.335196	2015.847046
6954.182097	1.218040	0.347067	542.027588
6954.183070	0.605405	0.347067	1131.086914
6954.183963	0.092952	0.347067	1214.092773
6954.184852	0.091146	0.347067	1295.121826
6954.185784	0.091212	0.347067	1380.131592
6954.186685	0.091154	0.347067	1462.260986
6954.187593	0.091183	0.347067	1545.055054
6954.188483	0.091241	0.347067	1626.260010
6954.189409	0.091161	0.347067	1710.675049
6954.190316	0.091099	0.347067	1793.301514
6954.191231	0.091077	0.347067	1876.636719
6954.192114	0.091205	0.347067	1957.170532
6955.246030	1.214542	0.333467	539.256775
6955.246934	0.714239	0.333467	1184.929199
6955.247819	0.094537	0.333467	1268.594727
6955.248773	0.091139	0.333467	1355.541260
6955.249675	0.091062	0.333467	1437.679199
6955.250568	0.091117	0.333467	1519.046631
6955.251502	0.091143	0.333467	1604.173828
6955.252397	0.091208	0.333467	1685.805420
6955.253288	0.091088	0.333467	1766.964478
6955.254178	0.091168	0.333467	1848.104248
6955.255120	0.091150	0.333467	1933.967407
6955.256025	0.091124	0.333467	2016.434814
6956.293087	1.229696	0.349049	555.822632
6956.293985	0.705857	0.349049	1189.682129
6956.294942	0.093911	0.349049	1279.555054
6956.295850	0.091091	0.349049	1362.265991
6956.296743	0.091252	0.349049	1443.754395
6956.297631	0.091190	0.349049	1524.731323
6956.298573	0.091271	0.349049	1610.708374
6956.299479	0.091040	0.349049	1693.190674
6956.300375	0.091106	0.349049	1774.821655
6956.301302	0.091143	0.349049	1859.310791
6956.302210	0.091201	0.349049	1942.121460
6956.303112	0.091088	0.349049	2024.282471
6957.364738	1.245593	0.336315	612.831909
6957.365653	0.618314	0.336315	1178.589355
6957.366551	0.092977	0.336315	1262.083008
6957.367437	0.091062	0.336315	1342.763916
6957.368380	0.091099	0.336315	1428.669922
6957.369283	0.091029	0.336315	1510.869141
6957.370188	0.091051	0.336315	1593.270264
6957.371083	0.091091	0.336315	1674.796997
6957.372024	0.091150	0.336315	1760.569092
6957.372933	0.091044	0.336315	1843.327881
6957.373830	0.091102	0.336315	1925.046631
6957.374775	0.091088	0.336315	2011.124512
6958.404044	1.206401	0.350511	532.023010
6958.405022	0.606691	0.350511	1125.366455
6958.405928	0.092878	0.350511	1209.514282
6958.406817	0.091014	0.350511	1290.426025
6958.407738	0.091139	0.350511	1374.364990
6958.408663	0.091135	0.350511	1458.665039
6958.409573	0.091095	0.350511	1541.561523
6958.410472	0.091055	0.350511	1623.419678
6958.411394	0.091146	0.350511	1707.456543
6958.412289	0.091106	0.350511	1788.996338
6958.413183	0.091003	0.350511	1870.353394
6958.414073	0.091124	0.350511	1951.453979
6959.480781	1.222921	0.337681	540.531128
6959.481764	0.591896	0.337681	1122.364746
6959.482674	0.092706	0.337681	1206.727539
6959.483563	0.091069	0.337681	1287.688232
6959.484501	0.091128	0.337681	1373.166260
6959.485404	0.091179	0.337681	1455.501099
6959.486309	0.091033	0.337681	1537.885742
6959.487195	0.091110	0.337681	1618.608887
6959.488134	0.091208	0.337681	1704.253662
6959.489036	0.091146	0.337681	1786.467529
6959.489935	0.091058	0.337681	1868.328979
6959.490820	0.091113	0.337681	1948.964233
6960.518090	1.207694	0.346596	530.177673
6960.519067	0.615824	0.346596	1131.837646
6960.519956	0.092853	0.346596	1214.383789
6960.520847	0.090989	0.346596	1295.454834
6960.521772	0.091084	0.346596	1379.707520
6960.522702	0.091091	0.346596	1464.422485
6960.523607	0.090974	0.346596	1546.754028
6960.524503	0.091110	0.346596	1628.388184
6960.525450	0.091187	0.346596	1714.741821
6960.526352	0.091117	0.346596	1796.929321
6960.527270	0.091055	0.346596	1880.517578
6960.528153	0.091069	0.346596	1960.931763
6961.595346	1.220464	0.343804	543.106445
6961.596254	0.703949	0.343804	1182.292114
6961.597140	0.094226	0.343804	1265.776367
6961.598102	0.091128	0.343804	1353.441406
6961.599004	0.091000	0.343804	1435.523193
6961.599895	0.091011	0.343804	1516.613770
6961.600833	0.091113	0.343804	1602.078003
6961.601743	0.091135	0.343804	1685.011108
6961.602644	0.091143	0.343804	1767.130615
6961.603539	0.091058	0.343804	1848.627808
6961.604457	0.091106	0.343804	1932.263062
6961.605365	0.091102	0.343804	2014.983887
6962.633162	1.202410	0.340638	526.655457
6962.634122	0.687535	0.340638	1186.689453
6962.635016	0.093021	0.340638	1269.850464
6962.635914	0.091091	0.340638	1351.650513
6962.636801	0.091055	0.340638	1432.416016
6962.637738	0.091102	0.340638	1517.778809
6962.638641	0.091051	0.340638	1599.997925
6962.639542	0.091073	0.340638	1682.054687
6962.640430	0.091088	0.340638	1762.940552
6962.641373	0.091179	0.340638	1848.922485
6962.642282	0.091106	0.340638	1931.737793
6962.643177	0.091088	0.340638	2013.261230
6963.708895	1.228147	0.351450	558.806885
6963.709793	0.701660	0.351450	1188.897705
6963.710750	0.094065	0.351450	1278.917847
6963.711647	0.091091	0.351450	1360.626709
6963.712547	0.091143	0.351450	1442.655029
6963.713435	0.091014	0.351450	1523.475830
6963.714378	0.091143	0.351450	1609.423340
6963.715286	0.091124	0.351450	1692.164185
6963.716194	0.091084	0.351450	1774.868408
6963.717082	0.091077	0.351450	1855.744507
6963.718016	0.091194	0.351450	1940.919556
6963.718925	0.091058	0.351450	2023.691650
6964.748762	1.226144	0.337818	552.990845
6964.749684	0.678047	0.337818	1178.150146
6964.750578	0.093673	0.337818	1261.893921
6964.751527	0.091146	0.337818	1348.391724
6964.752444	0.091062	0.337818	1431.895630
6964.753362	0.091157	0.337818	1515.578003
6964.754247	0.091106	0.337818	1596.206787
6964.755184	0.091146	0.337818	1681.610840
6964.756090	0.091095	0.337818	1764.142822
6964.757015	0.091047	0.337818	1848.361572
6964.757900	0.091011	0.337818	1928.906128
6964.758849	0.091084	0.337818	2015.344849
6965.822920	1.203959	0.351502	526.129944
6965.823883	0.671034	0.351502	1172.335693
6965.824782	0.092860	0.351502	1255.816895
6965.825674	0.091110	0.351502	1337.086670
6965.826561	0.091139	0.351502	1417.926880
6965.827499	0.091190	0.351502	1503.463257
6965.828407	0.091168	0.351502	1586.244019
6965.829315	0.091135	0.351502	1668.994873
6965.830207	0.091095	0.351502	1750.251587
6965.831165	0.091161	0.351502	1837.583740
6965.832076	0.090981	0.351502	1920.467773
6965.832966	0.091146	0.351502	2001.587891
6966.864349	1.220317	0.338007	545.481934
6966.865285	0.682229	0.338007	1184.048340
6966.866173	0.093604	0.338007	1267.168213
6966.867110	0.091062	0.338007	1352.493286
6966.868015	0.091077	0.338007	1434.917725
6966.868919	0.091062	0.338007	1517.237793
6966.869807	0.091033	0.338007	1598.074829
6966.870769	0.091165	0.338007	1685.775146
6966.871674	0.091055	0.338007	1768.179687
6966.872571	0.091102	0.338007	1849.898437
6966.873460	0.091040	0.338007	1930.833008
6966.874411	0.091245	0.338007	2017.607056
6967.937034	1.251288	0.353416	626.895203
6967.937953	0.595488	0.353416	1174.148926
6967.938848	0.092688	0.353416	1257.104736
6967.939739	0.091066	0.353416	1338.244263
6967.940676	0.091256	0.353416	1423.751221
6967.941578	0.091139	0.353416	1505.958496
6967.942484	0.091036	0.353416	1588.437500
6967.943390	0.091165	0.353416	1671.032593
6967.944318	0.091219	0.353416	1755.684326
6967.945222	0.091080	0.353416	1838.020996
6967.946112	0.091187	0.353416	1919.177002
6967.947044	0.091183	0.353416	2004.159424
6968.978902	1.212627	0.341359	540.831604
6968.979807	0.714327	0.341359	1187.297852
6968.980692	0.094453	0.341359	1270.888916
6968.981653	0.091132	0.341359	1358.466431
6968.982545	0.091080	0.341359	1439.710083
6968.983431	0.091088	0.341359	1520.413696
6968.984362	0.091179	0.341359	1605.301514
6968.985269	0.091102	0.341359	1687.931274
6968.986189	0.091055	0.341359	1771.701538
6968.987084	0.091154	0.341359	1853.283936
6968.988022	0.091179	0.341359	1938.810059
6968.988933	0.091080	0.341359	2021.784180
6970.051024	1.213469	0.351752	537.566833
6970.051924	0.722058	0.351752	1187.419189
6970.052816	0.094523	0.351752	1271.733398
6970.053771	0.091198	0.351752	1358.827026
6970.054679	0.091099	0.351752	1441.544556
6970.055585	0.091077	0.351752	1524.060059
6970.056472	0.091201	0.351752	1604.955444
6970.057413	0.091124	0.351752	1690.703369
6970.058319	0.091036	0.351752	1773.182373
6970.059213	0.091117	0.351752	1854.640869
6970.060143	0.091150	0.351752	1939.410278
6970.061039	0.091165	0.351752	2021.093750
6971.093489	1.262596	0.339317	602.258484
6971.094420	0.605947	0.339317	1166.395386
6971.095322	0.092823	0.339317	1250.122192
6971.096209	0.091102	0.339317	1330.929932
6971.097157	0.091139	0.339317	1417.329590
6971.098059	0.091110	0.339317	1499.510498
6971.098955	0.091055	0.339317	1581.095459
6971.099884	0.091146	0.339317	1665.770264
6971.100787	0.091190	0.339317	1748.114990
6971.101693	0.091084	0.339317	1830.637085
6971.102581	0.091058	0.339317	1911.496948
6971.103512	0.091150	0.339317	1996.357544
6972.166652	1.256180	0.353931	614.272217
6972.167575	0.610009	0.353931	1177.310059
6972.168472	0.092805	0.353931	1260.556274
6972.169360	0.090996	0.353931	1341.360840
6972.170307	0.091198	0.353931	1427.724854
6972.171205	0.091003	0.353931	1509.445923
6972.172103	0.091124	0.353931	1591.275513
6972.173019	0.091055	0.353931	1674.681641
6972.173930	0.091139	0.353931	1757.709229
6972.174836	0.091106	0.353931	1840.251221
6972.175730	0.091077	0.353931	1921.673706
6972.176662	0.091165	0.353931	2006.639038
6973.207500	1.209661	0.341113	533.460327
6973.208408	0.716997	0.341113	1184.493652
6973.209293	0.094446	0.341113	1268.078125
6973.210255	0.091179	0.341113	1355.792480
6973.211163	0.091051	0.341113	1438.466797
6973.212060	0.091099	0.341113	1520.182251
6973.212985	0.091187	0.341113	1604.529785
6973.213882	0.091187	0.341113	1686.324097
6973.214782	0.091058	0.341113	1768.276611
6973.215668	0.091143	0.341113	1849.028931
6973.216590	0.091150	0.341113	1933.069092
6973.217495	0.091139	0.341113	2015.549805
6974.281696	1.222936	0.353061	551.544067
6974.282601	0.700719	0.353061	1185.694824
6974.283487	0.094208	0.353061	1269.162842
6974.284450	0.091084	0.353061	1356.876709
6974.285340	0.091143	0.353061	1437.993652
6974.286228	0.091018	0.353061	1518.817749
6974.287158	0.091121	0.353061	1603.559937
6974.288055	0.091139	0.353061	1685.311523
6974.288972	0.091139	0.353061	1768.885864
6974.289861	0.091022	0.353061	1849.804199
6974.290802	0.091198	0.353061	1935.621094
6974.291713	0.091077	0.353061	2018.591919
6975.321106	1.296621	0.343462	662.573364
6975.322025	0.585546	0.343462	1200.689697
6975.322947	0.092377	0.343462	1285.861084
6975.323834	0.091106	0.343462	1366.672119
6975.324773	0.091095	0.343462	1452.210327
6975.325695	0.091106	0.343462	1536.209961
6975.326589	0.091088	0.343462	1617.642334
6975.327529	0.090948	0.343462	1703.133911
6975.328441	0.091047	0.343462	1786.169067
6975.329359	0.091161	0.343462	1869.854736
6975.330250	0.091014	0.343462	1950.948608
6975.331196	0.091051	0.343462	2037.082886
6976.397259	1.214290	0.348545	533.073120
6976.398165	0.715741	0.348545	1181.534424
6976.399052	0.094314	0.348545	1265.190918
6976.400021	0.091205	0.348545	1353.568359
6976.400927	0.091055	0.348545	1436.063965
6976.401824	0.091139	0.348545	1517.815552
6976.402757	0.091121	0.348545	1602.831055
6976.403649	0.091135	0.348545	1684.123657
6976.404549	0.091058	0.348545	1766.076172
6976.405433	0.091003	0.348545	1846.523193
6976.406357	0.091165	0.348545	1930.759277
6976.407263	0.091187	0.348545	2013.374268
6977.435092	1.210657	0.349399	532.688965
6977.436055	0.656913	0.349399	1165.296021
6977.436963	0.092871	0.349399	1249.622925
6977.437863	0.090956	0.349399	1331.483154
6977.438747	0.091084	0.349399	1412.001343
6977.439673	0.091219	0.349399	1496.470581
6977.440581	0.091124	0.349399	1579.211426
6977.441484	0.091022	0.349399	1661.404053
6977.442369	0.091062	0.349399	1741.993896
6977.443305	0.091241	0.349399	1827.395874
6977.444210	0.091033	0.349399	1909.780518
6977.445099	0.091022	0.349399	1990.698853
6978.511818	1.204955	0.344420	525.360291
6978.512803	0.609979	0.344420	1126.189941
6978.513704	0.092798	0.344420	1209.800781
6978.514607	0.091055	0.344420	1292.023193
6978.515492	0.091003	0.344420	1372.561279
6978.516423	0.091143	0.344420	1457.415039
6978.517325	0.091036	0.344420	1539.529785
6978.518218	0.091132	0.344420	1620.910278
6978.519148	0.091183	0.344420	1705.710327
6978.520056	0.091124	0.344420	1788.451172
6978.520954	0.091018	0.344420	1870.185425
6978.521845	0.091066	0.344420	1951.324951
6979.550222	1.289923	0.353641	657.860779
6979.551137	0.586501	0.353641	1194.509644
6979.552059	0.092388	0.353641	1279.691040
6979.552942	0.091018	0.353641	1360.059937
6979.553873	0.091110	0.353641	1444.882935
6979.554775	0.091132	0.353641	1527.083618
6979.555666	0.091172	0.353641	1608.317749
6979.556595	0.091110	0.353641	1692.958618
6979.557510	0.091124	0.353641	1776.337280
6979.558413	0.091088	0.353641	1858.589478
6979.559302	0.091088	0.353641	1939.566406
6979.560248	0.091154	0.353641	2025.797729
6980.625349	1.216337	0.345560	529.106506
6980.626342	0.568590	0.345560	1093.716553
6980.627251	0.092256	0.345560	1177.577148
6980.628151	0.091033	0.345560	1259.506592
6980.629082	0.091110	0.345560	1344.329590
6980.629976	0.091135	0.345560	1425.804443
6980.630872	0.091018	0.345560	1507.356689
6980.631759	0.091055	0.345560	1588.122192
6980.632693	0.091157	0.345560	1673.263062
6980.633585	0.091135	0.345560	1754.555664
6980.634487	0.091073	0.345560	1836.703491
6980.635374	0.090992	0.345560	1917.413818
6981.666768	1.214861	0.355639	534.538757
6981.667683	0.699910	0.355639	1174.956055
6981.668571	0.094131	0.355639	1258.544312
6981.669535	0.091271	0.355639	1346.529297
6981.670445	0.091135	0.355639	1429.462402
6981.671341	0.091150	0.355639	1511.132690
6981.672273	0.091124	0.355639	1596.060547
6981.673174	0.091168	0.355639	1678.203125
6981.674074	0.091110	0.355639	1760.201782
6981.674958	0.091095	0.355639	1840.729736
6981.675878	0.091241	0.355639	1924.671875
6981.676774	0.091135	0.355639	2006.329102
6982.736871	1.226799	0.345879	559.420471
6982.737774	0.693376	0.345879	1185.539307
6982.738658	0.094124	0.345879	1268.744507
6982.739590	0.091179	0.345879	1353.723511
6982.740503	0.091091	0.345879	1436.889893
6982.741401	0.091150	0.345879	1518.742554
6982.742296	0.091003	0.345879	1600.190674
6982.743238	0.091168	0.345879	1686.071167
6982.744139	0.090956	0.345879	1768.022339
6982.745031	0.091161	0.345879	1849.337891
6982.745971	0.091161	0.345879	1935.029175
6982.746878	0.091091	0.345879	2017.648926
6983.785468	1.253946	0.353879	609.417969
6983.786392	0.612722	0.353879	1175.573242
6983.787290	0.092904	0.353879	1259.001099
6983.788173	0.091102	0.353879	1339.444458
6983.789114	0.091187	0.353879	1425.250977
6983.790031	0.091128	0.353879	1508.815308
6983.790929	0.091128	0.353879	1590.648193
6983.791843	0.091238	0.353879	1674.039551
6983.792765	0.091172	0.353879	1758.099976
6983.793670	0.091110	0.353879	1840.554199
6983.794567	0.091058	0.353879	1922.233521
6983.795503	0.091154	0.353879	2007.553223
6984.847306	1.205918	0.348034	529.398010
6984.848200	0.721417	0.348034	1174.344971
6984.849183	0.092684	0.348034	1265.453613
6984.850082	0.091036	0.348034	1347.295288
6984.850971	0.091121	0.348034	1428.301514
6984.851911	0.091183	0.348034	1514.013428
6984.852811	0.091040	0.348034	1595.949463
6984.853708	0.091069	0.348034	1677.638672
6984.854597	0.091047	0.348034	1758.579834
6984.855532	0.091194	0.348034	1843.846069
6984.856441	0.091128	0.348034	1926.681396
6984.857345	0.091029	0.348034	2008.971680
6985.904586	1.205127	0.351067	530.255798
6985.905572	0.594419	0.351067	1116.352905
6985.906482	0.092626	0.351067	1200.642334
6985.907376	0.090978	0.351067	1281.976440
6985.908286	0.091150	0.351067	1364.922852
6985.909213	0.091099	0.351067	1449.371338
6985.910121	0.091022	0.351067	1532.019043
6985.911015	0.091154	0.351067	1613.510376
6985.911945	0.091128	0.351067	1698.259399
6985.912853	0.091058	0.351067	1780.940430
6985.913761	0.091099	0.351067	1863.657959
6985.914648	0.091132	0.351067	1944.491699
6986.956757	1.222687	0.353867	545.318298
6986.957664	0.699097	0.353867	1179.398926
6986.958571	0.094098	0.353867	1264.745728
6986.959510	0.091106	0.353867	1350.294189
6986.960411	0.091128	0.353867	1432.400513
6986.961300	0.091102	0.353867	1513.390503
6986.962229	0.091227	0.353867	1598.140259
6986.963132	0.091124	0.353867	1680.425415
6986.964028	0.091033	0.353867	1761.990723
6986.964913	0.091051	0.353867	1842.570923
6986.965850	0.091139	0.353867	1927.968140
6986.966760	0.091106	0.353867	2010.874512
6988.022783	1.222496	0.347526	600.245728
6988.023710	0.603333	0.347526	1159.534912
6988.024637	0.092410	0.347526	1245.198730
6988.025523	0.091135	0.347526	1325.944580
6988.026450	0.090992	0.347526	1410.294556
6988.027365	0.091066	0.347526	1493.619629
6988.028279	0.091073	0.347526	1576.860352
6988.029176	0.091040	0.347526	1658.523315
6988.030125	0.091139	0.347526	1745.014160
6988.031053	0.091040	0.347526	1829.499268
6988.031946	0.091198	0.347526	1910.938599
6988.032859	0.091121	0.347526	1994.131714
6989.068769	1.232322	0.360808	552.080200
6989.069699	0.663900	0.360808	1169.507324
6989.070602	0.093212	0.360808	1253.677490
6989.071531	0.091165	0.360808	1338.369385
6989.072434	0.091165	0.360808	1420.690918
6989.073333	0.091168	0.360808	1502.651123
6989.074220	0.091161	0.360808	1583.510864
6989.075157	0.091102	0.360808	1668.873657
6989.076059	0.091183	0.360808	1751.120605
6989.076956	0.091132	0.360808	1832.865601
6989.077843	0.091135	0.360808	1913.702515
6989.078793	0.091187	0.360808	2000.329712
6990.139866	1.215663	0.339522	542.185608
6990.140759	0.725647	0.339522	1190.188354
6990.141710	0.093358	0.339522	1278.971924
6990.142607	0.091168	0.339522	1360.749756
6990.143507	0.091091	0.339522	1442.731934
6990.144397	0.091187	0.339522	1523.887939
6990.145350	0.091172	0.339522	1610.774780
6990.146255	0.091150	0.339522	1693.265381
6990.147154	0.091161	0.339522	1775.218994
6990.148084	0.091161	0.339522	1859.998657
6990.148979	0.091168	0.339522	1941.594238
6990.149874	0.091113	0.339522	2023.140625
6991.183309	1.205339	0.368071	530.349304
6991.184202	0.723783	0.368071	1176.687500
6991.185174	0.093080	0.368071	1267.161133
6991.186080	0.091154	0.368071	1349.746216
6991.186975	0.091176	0.368071	1431.348389
6991.187913	0.091154	0.368071	1516.850464
6991.188815	0.091230	0.368071	1599.140381
6991.189717	0.091132	0.368071	1681.341064
6991.190602	0.091165	0.368071	1762.021729
6991.191575	0.091172	0.368071	1850.731934
6991.192467	0.091036	0.368071	1931.936401
6991.193370	0.091230	0.368071	2014.317505
6992.253384	1.199213	0.339107	521.657532
6992.254284	0.728203	0.339107	1177.040283
6992.255217	0.093743	0.339107	1264.502197
6992.256130	0.091161	0.339107	1347.732056
6992.257019	0.091102	0.339107	1428.722046
6992.257970	0.091252	0.339107	1515.503174
6992.258868	0.091128	0.339107	1597.336060
6992.259764	0.091121	0.339107	1678.980103
6992.260651	0.091157	0.339107	1759.836548
6992.261587	0.091285	0.339107	1845.279663
6992.262488	0.091205	0.339107	1927.455200
6992.263388	0.091190	0.339107	2009.526367
6993.297869	1.227814	0.370766	542.693665
6993.298858	0.569216	0.370766	1105.648682
6993.299761	0.092527	0.370766	1189.200439
6993.300650	0.091033	0.370766	1270.128540
6993.301589	0.091223	0.370766	1355.787109
6993.302492	0.091168	0.370766	1438.112061
6993.303389	0.091132	0.370766	1519.857056
6993.304276	0.091154	0.370766	1600.710327
6993.305222	0.091245	0.370766	1687.028198
6993.306134	0.091190	0.370766	1770.193604
6993.307035	0.091201	0.370766	1852.365845
6993.307924	0.091183	0.370766	1933.427368
6994.367429	1.198217	0.336682	520.026001
6994.368375	0.711116	0.336682	1192.741455
6994.369297	0.093080	0.336682	1278.561035
6994.370188	0.091106	0.336682	1359.736450
6994.371076	0.091216	0.336682	1440.736084
6994.372024	0.091179	0.336682	1527.173950
6994.372922	0.091146	0.336682	1609.023315
6994.373840	0.091139	0.336682	1692.688843
6994.374738	0.091198	0.336682	1774.584229
6994.375688	0.091143	0.336682	1861.169678
6994.376589	0.091113	0.336682	1943.262695
6994.377480	0.091150	0.336682	2024.477295
6995.413964	1.213436	0.369944	533.911926
6995.414943	0.589988	0.369944	1111.510010
6995.415849	0.092684	0.369944	1195.482056
6995.416740	0.091139	0.369944	1276.686768
6995.417678	0.091238	0.369944	1362.267822
6995.418576	0.091121	0.369944	1444.094116
6995.419473	0.091077	0.369944	1525.789917
6995.420362	0.091132	0.369944	1606.805908
6995.421296	0.091227	0.369944	1692.011719
6995.422201	0.091110	0.369944	1774.465942
6995.423100	0.091088	0.369944	1856.353760
6995.424012	0.091128	0.369944	1939.462402
6996.479943	1.201274	0.338471	521.353088
6996.480898	0.648988	0.338471	1141.136719
6996.481812	0.092900	0.338471	1226.047729
6996.482712	0.090989	0.338471	1307.937622
6996.483598	0.091165	0.338471	1388.709473
6996.484555	0.091212	0.338471	1475.999512
6996.485462	0.091135	0.338471	1558.659180
6996.486360	0.091168	0.338471	1640.528198
6996.487276	0.091128	0.338471	1724.001343
6996.488183	0.091194	0.338471	1806.714111
6996.489081	0.091157	0.338471	1888.573242
6996.489968	0.091216	0.338471	1969.481689
6997.530633	1.242272	0.371092	621.135864
6997.531552	0.601161	0.371092	1173.602783
6997.532441	0.092849	0.371092	1256.145630
6997.533331	0.091106	0.371092	1337.229980
6997.534268	0.091157	0.371092	1422.644287
6997.535166	0.091132	0.371092	1504.480469
6997.536067	0.091110	0.371092	1586.570190
6997.536955	0.091069	0.371092	1667.439697
6997.537898	0.091165	0.371092	1753.407837
6997.538804	0.091025	0.371092	1835.876831
6997.539699	0.091143	0.371092	1917.449463
6997.540631	0.091194	0.371092	2002.442139
6998.594524	1.228180	0.335667	548.996460
6998.595452	0.670276	0.335667	1171.012451
6998.596342	0.093699	0.335667	1254.404297
6998.597284	0.091139	0.335667	1340.257202
6998.598182	0.091241	0.335667	1422.192017
6998.599079	0.091121	0.335667	1503.927246
6998.599968	0.091029	0.335667	1584.852051
6998.600908	0.091168	0.335667	1670.550171
6998.601818	0.091143	0.335667	1753.489868
6998.602721	0.091135	0.335667	1835.785034
6998.603608	0.091183	0.335667	1916.664185
6998.604555	0.091168	0.335667	2003.000488
6999.644625	1.212755	0.370879	532.399475
6999.645532	0.719854	0.370879	1185.306641
6999.646416	0.094537	0.370879	1268.877686
6999.647355	0.091179	0.370879	1354.494995
6999.648266	0.091176	0.370879	1437.555908
6999.649174	0.091084	0.370879	1520.260132
6999.650062	0.091154	0.370879	1601.204468
6999.651010	0.091154	0.370879	1687.618042
6999.651917	0.091069	0.370879	1770.217896
6999.652807	0.091091	0.370879	1851.289185
6999.653738	0.091172	0.370879	1936.170166
6999.654643	0.091234	0.370879	2018.737061
7000.707550	1.230161	0.336839	548.651855
7000.708471	0.683818	0.336839	1178.448486
7000.709359	0.093867	0.336839	1261.802490
7000.710303	0.091198	0.336839	1347.892944
7000.711205	0.091241	0.336839	1430.192749
7000.712104	0.091007	0.336839	1512.008057
7000.712992	0.091187	0.336839	1592.981689
7000.713931	0.091216	0.336839	1678.633301
7000.714839	0.091117	0.336839	1761.367432
7000.715742	0.091205	0.336839	1843.725342
7000.716628	0.091150	0.336839	1924.484131
7000.717569	0.091267	0.336839	2010.366455
7001.760252	1.227697	0.372268	596.660522
7001.761173	0.615073	0.372268	1163.142944
7001.762074	0.092922	0.372268	1246.865967
7001.762958	0.091168	0.372268	1327.458618
7001.763915	0.091150	0.372268	1414.689087
7001.764818	0.091099	0.372268	1496.951172
7001.765711	0.091124	0.372268	1578.325195
7001.766596	0.091135	0.372268	1658.979858
7001.767538	0.091216	0.372268	1744.905151
7001.768447	0.091154	0.372268	1827.763794
7001.769344	0.091135	0.372268	1909.512085
7001.770274	0.091157	0.372268	1994.288330
7002.822102	1.208104	0.330003	536.398315
7002.823008	0.711196	0.330003	1180.742187
7002.823898	0.094325	0.330003	1264.691406
7002.824861	0.091139	0.330003	1352.458130
7002.825767	0.091128	0.330003	1435.020020
7002.826653	0.091117	0.330003	1515.749634
7002.827576	0.091205	0.330003	1599.931641
7002.828493	0.091157	0.330003	1683.522827
7002.829392	0.091165	0.330003	1765.479736
7002.830275	0.091194	0.330003	1846.003906
7002.831202	0.091212	0.330003	1930.557617
7002.832106	0.091194	0.330003	2012.996826
7003.875290	1.208009	0.371595	532.731995
7003.876184	0.729617	0.371595	1185.009277
7003.877141	0.093208	0.371595	1274.209351
7003.878046	0.091143	0.371595	1356.693359
7003.878938	0.091084	0.371595	1437.940308
7003.879864	0.091172	0.371595	1522.365479
7003.880779	0.091212	0.371595	1605.824585
7003.881692	0.091077	0.371595	1688.977539
7003.882584	0.091154	0.371595	1770.286499
7003.883507	0.091113	0.371595	1854.384033
7003.884416	0.091219	0.371595	1937.302490
7003.885320	0.091285	0.371595	2019.824463
7004.936714	1.262600	0.337939	630.037415
7004.937637	0.597169	0.337939	1181.224609
7004.938538	0.092849	0.337939	1264.881714
7004.939421	0.091154	0.337939	1345.370361
7004.940358	0.091249	0.337939	1430.870483
7004.941268	0.091121	0.337939	1513.790283
7004.942166	0.091201	0.337939	1595.688965
7004.943088	0.091256	0.337939	1679.827148
7004.944008	0.091187	0.337939	1763.718750
7004.944918	0.091143	0.337939	1846.658447
7004.945816	0.091216	0.337939	1928.570312
7004.946754	0.091194	0.337939	2014.110107
7005.988317	1.220251	0.370153	541.791626
7005.989210	0.721348	0.370153	1185.955078
7005.990166	0.093245	0.370153	1275.096924
7005.991076	0.091033	0.370153	1357.936646
7005.991970	0.091179	0.370153	1439.450806
7005.992860	0.091176	0.370153	1520.597046
7005.993816	0.091223	0.370153	1607.806396
7005.994725	0.091128	0.370153	1690.641724
7005.995625	0.091106	0.370153	1772.637085
7005.996551	0.091296	0.370153	1857.177490
7005.997457	0.091165	0.370153	1939.772583
7005.998359	0.091128	0.370153	2021.969971
7007.052748	1.210913	0.338108	532.801758
7007.053702	0.647369	0.338108	1150.392090
7007.054610	0.093058	0.338108	1234.888672
7007.055498	0.091128	0.338108	1315.810303
7007.056425	0.091223	0.338108	1400.374146
7007.057339	0.091172	0.338108	1483.705200
7007.058246	0.091121	0.338108	1566.351562
7007.059136	0.091190	0.338108	1647.510864
7007.060092	0.091256	0.338108	1734.751709
7007.060990	0.091176	0.338108	1816.627319
7007.061895	0.091150	0.338108	1899.117920
7007.062796	0.091183	0.338108	1981.273682
7008.101843	1.202281	0.373980	531.408386
7008.102743	0.725424	0.373980	1184.289551
7008.103668	0.094673	0.373980	1271.861938
7008.104589	0.091154	0.373980	1355.814331
7008.105501	0.090959	0.373980	1438.769409
7008.106390	0.091150	0.373980	1519.801636
7008.107332	0.091143	0.373980	1605.657959
7008.108236	0.091143	0.373980	1688.050903
7008.109156	0.091146	0.373980	1771.905396
7008.110043	0.091176	0.373980	1852.778076
7008.110974	0.091139	0.373980	1937.628418
7008.111883	0.091110	0.373980	2020.447021
7009.168847	1.209749	0.336694	535.918579
7009.169826	0.603083	0.336694	1126.337402
7009.170728	0.092651	0.336694	1209.908936
7009.171622	0.091150	0.336694	1291.396973
7009.172511	0.091132	0.336694	1372.412964
7009.173466	0.091227	0.336694	1459.534546
7009.174372	0.091029	0.336694	1542.006836
7009.175267	0.091113	0.336694	1623.553223
7009.176184	0.091121	0.336694	1707.110840
7009.177088	0.091183	0.336694	1789.540161
7009.177979	0.091095	0.336694	1870.705811
7009.178865	0.091172	0.336694	1951.484131
7010.215370	1.201194	0.374367	527.324158
7010.216348	0.610067	0.374367	1123.969727
7010.217255	0.092794	0.374367	1208.134033
7010.218145	0.091124	0.374367	1289.234619
7010.219036	0.091047	0.374367	1370.357788
7010.219977	0.091190	0.374367	1456.167725
7010.220885	0.091176	0.374367	1538.955078
7010.221784	0.091055	0.374367	1620.813232
7010.222706	0.091190	0.374367	1704.890625
7010.223607	0.091205	0.374367	1787.066162
7010.224503	0.091179	0.374367	1868.762695
7010.225392	0.091223	0.374367	1949.860107
7011.284429	1.200967	0.341560	527.224426
7011.285321	0.737351	0.341560	1184.941650
7011.286286	0.093120	0.341560	1274.802612
7011.287186	0.091157	0.341560	1356.844116
7011.288084	0.091073	0.341560	1438.627686
7011.288970	0.091121	0.341560	1519.360596
7011.289912	0.091252	0.341560	1605.320435
7011.290811	0.091135	0.341560	1687.250977
7011.291711	0.091168	0.341560	1769.302368
7011.292641	0.091121	0.341560	1854.044556
7011.293547	0.091150	0.341560	1936.626343
7011.294445	0.091106	0.341560	2018.439453
7012.330446	1.210840	0.374548	535.191223
7012.331356	0.713009	0.374548	1184.029419
7012.332250	0.094398	0.374548	1268.421387
7012.333194	0.091289	0.374548	1354.598267
7012.334097	0.091073	0.374548	1436.837158
7012.334990	0.091080	0.374548	1518.171875
7012.335918	0.091117	0.374548	1602.728394
7012.336833	0.091223	0.374548	1686.197510
7012.337739	0.091044	0.374548	1768.683105
7012.338627	0.091154	0.374548	1849.627441
7012.339564	0.091205	0.374548	1935.086426
7012.340466	0.091201	0.374548	2017.349854
7013.400025	1.224397	0.342213	550.978638
7013.400926	0.701935	0.342213	1183.421875
7013.401815	0.094142	0.342213	1267.114014
7013.402770	0.091249	0.342213	1354.256592
7013.403675	0.091095	0.342213	1436.697510
7013.404574	0.091102	0.342213	1518.598511
7013.405466	0.091022	0.342213	1599.789917
7013.406404	0.091208	0.342213	1685.343506
7013.407312	0.091139	0.342213	1768.097656
7013.408204	0.091084	0.342213	1849.344604
7013.409135	0.091176	0.342213	1934.229004
7013.410030	0.091194	0.342213	2015.847534
7014.442956	1.210272	0.371757	530.099243
7014.443884	0.686528	0.371757	1167.197510
7014.444779	0.093951	0.371757	1251.284058
7014.445719	0.091208	0.371757	1337.020020
7014.446615	0.091216	0.371757	1418.749390
7014.447515	0.091135	0.371757	1500.771118
7014.448398	0.091165	0.371757	1581.269409
7014.449340	0.091216	0.371757	1667.194702
7014.450236	0.091187	0.371757	1748.897827
7014.451145	0.091121	0.371757	1831.726440
7014.452039	0.091161	0.371757	1913.224243
7014.452980	0.091230	0.371757	1999.072144
7015.513566	1.224089	0.348864	545.943787
7015.514474	0.701997	0.348864	1183.357178
7015.515360	0.094380	0.348864	1266.977783
7015.516317	0.091143	0.348864	1354.201172
7015.517223	0.091058	0.348864	1436.700073
7015.518118	0.091135	0.348864	1518.266113
7015.519012	0.091201	0.348864	1599.799927
7015.519962	0.091117	0.348864	1686.361084
7015.520871	0.091143	0.348864	1769.209717
7015.521761	0.091135	0.348864	1850.320068
7015.522696	0.091230	0.348864	1935.620605
7015.523599	0.091084	0.348864	2017.869385
7016.559635	1.252020	0.366189	643.538391
7016.560541	0.593423	0.366189	1181.179443
7016.561459	0.092410	0.366189	1266.011475
7016.562355	0.091143	0.366189	1347.675171
7016.563289	0.091102	0.366189	1432.764771
7016.564200	0.091183	0.366189	1515.832397
7016.565125	0.091139	0.366189	1600.135864
7016.566012	0.091183	0.366189	1681.015015
7016.566967	0.091084	0.366189	1768.000244
7016.567856	0.091077	0.366189	1848.967407
7016.568744	0.091128	0.366189	1929.889038
7016.569681	0.091238	0.366189	2015.378906
7017.627092	1.213217	0.355418	539.881348
7017.627989	0.721696	0.355418	1187.242187
7017.628931	0.093398	0.355418	1275.223511
7017.629842	0.091187	0.355418	1358.294434
7017.630741	0.091227	0.355418	1440.307373
7017.631628	0.091198	0.355418	1521.199585
7017.632574	0.091293	0.355418	1607.562500
7017.633477	0.091172	0.355418	1689.890747
7017.634369	0.091128	0.355418	1771.176880
7017.635304	0.091219	0.355418	1856.467041
7017.636199	0.091293	0.355418	1938.174072
7017.637103	0.091212	0.355418	2020.629883
7018.676173	1.205098	0.358177	527.832764
7018.677078	0.730089	0.358177	1188.563477
7018.677965	0.094757	0.358177	1272.613037
7018.678928	0.091216	0.358177	1360.453857
7018.679832	0.091165	0.358177	1442.866577
7018.680726	0.091124	0.358177	1524.331665
7018.681615	0.091172	0.358177	1605.383423
7018.682555	0.091234	0.358177	1691.143555
7018.683463	0.091091	0.358177	1773.854492
7018.684358	0.091113	0.358177	1855.400879
7018.685285	0.091227	0.358177	1939.968140
7018.686192	0.091223	0.358177	2022.707520
7019.737045	1.210715	0.364578	533.925415
7019.737941	0.725889	0.364578	1184.321655
7019.738880	0.093479	0.364578	1272.098389
7019.739795	0.091091	0.364578	1355.446899
7019.740692	0.091139	0.364578	1437.198486
7019.741605	0.091219	0.364578	1520.481934
7019.742519	0.091293	0.364578	1603.923462
7019.743425	0.091198	0.364578	1686.548462
7019.744318	0.091110	0.364578	1767.909302
7019.745257	0.091285	0.364578	1853.626343
7019.746147	0.091106	0.364578	1934.710693
7019.747044	0.091161	0.364578	2016.482056
7020.795360	1.226144	0.352691	546.860168
7020.796287	0.666918	0.352691	1165.092896
7020.797191	0.093464	0.352691	1249.584717
7020.798089	0.091187	0.352691	1331.470215
7020.799025	0.091238	0.352691	1416.868774
7020.799928	0.091176	0.352691	1499.200317
7020.800820	0.091157	0.352691	1580.512573
7020.801749	0.091293	0.352691	1665.323486
7020.802650	0.091179	0.352691	1747.475952
7020.803546	0.091113	0.352691	1829.113403
7020.804440	0.091102	0.352691	1910.558838
7020.805384	0.091168	0.352691	1996.621582
7021.847510	1.219867	0.369211	545.280518
7021.848404	0.713196	0.369211	1182.877563
7021.849357	0.093365	0.369211	1271.854858
7021.850258	0.091143	0.369211	1353.974365
7021.851144	0.091139	0.369211	1434.723389
7021.852073	0.091249	0.369211	1519.493530
7021.852979	0.091194	0.369211	1602.115112
7021.853880	0.091143	0.369211	1684.234619
7021.854802	0.091219	0.369211	1768.338989
7021.855713	0.091260	0.369211	1851.476685
7021.856623	0.091102	0.369211	1934.379761
7021.857519	0.091165	0.369211	2016.063232
7022.913995	1.206328	0.351172	533.197021
7022.914893	0.716389	0.351172	1176.514404
7022.915857	0.093197	0.351172	1266.356323
7022.916750	0.091040	0.351172	1347.655029
7022.917641	0.091132	0.351172	1428.853271
7022.918575	0.091293	0.351172	1514.120728
7022.919491	0.091088	0.351172	1597.557007
7022.920390	0.091110	0.351172	1679.464600
7022.921277	0.091190	0.351172	1760.350342
7022.922226	0.091201	0.351172	1846.900269
7022.923136	0.091124	0.351172	1929.823364
7022.924035	0.091168	0.351172	2011.783569
7023.957957	1.198129	0.369456	519.987854
7023.958925	0.665072	0.369456	1163.777588
7023.959834	0.092626	0.369456	1247.974365
7023.960726	0.091121	0.369456	1329.253906
7023.961640	0.091190	0.369456	1412.601685
7023.962543	0.091088	0.369456	1494.853882
7023.963442	0.091106	0.369456	1576.758179
7023.964330	0.091040	0.369456	1657.601685
7023.965259	0.091176	0.369456	1742.303711
7023.966169	0.091124	0.369456	1825.226807
7023.967066	0.091161	0.369456	1906.998169
7023.967951	0.091256	0.369456	1987.759766
7025.031113	1.204852	0.350644	526.520447
7025.032076	0.685957	0.350644	1187.097046
7025.032983	0.093124	0.350644	1271.560303
7025.033891	0.091146	0.350644	1354.321045
7025.034803	0.091150	0.350644	1437.449707
7025.035747	0.091190	0.350644	1523.533203
7025.036666	0.091036	0.350644	1607.195679
7025.037586	0.091179	0.350644	1691.080566
7025.038474	0.091216	0.350644	1772.080200
7025.039429	0.091219	0.350644	1859.194824
7025.040327	0.091128	0.350644	1941.027710
7025.041214	0.091201	0.350644	2021.923096
7026.070984	1.194716	0.369904	514.922424
7026.071917	0.727910	0.369904	1194.062500
7026.072846	0.093267	0.369904	1280.707153
7026.073745	0.091201	0.369904	1362.697021
7026.074637	0.091124	0.369904	1443.979858
7026.075582	0.091099	0.369904	1530.068115
7026.076487	0.091073	0.369904	1612.489136
7026.077394	0.091198	0.369904	1695.205322
7026.078293	0.091146	0.369904	1777.145752
7026.079242	0.091110	0.369904	1863.608765
7026.080145	0.091157	0.369904	1945.923706
7026.081060	0.091165	0.369904	2029.339233
7027.147781	1.264420	0.353388	628.416809
7027.148711	0.570981	0.353388	1159.429565
7027.149607	0.092552	0.353388	1242.356567
7027.150496	0.091146	0.353388	1323.385620
7027.151455	0.091124	0.353388	1410.773804
7027.152363	0.091223	0.353388	1493.604370
7027.153258	0.091150	0.353388	1575.183594
7027.154171	0.091187	0.353388	1658.436890
7027.155086	0.091256	0.353388	1741.936279
7027.155992	0.091124	0.353388	1824.494873
7027.156884	0.091194	0.353388	1905.839844
7027.157812	0.091201	0.353388	1990.474487
7028.185044	1.213942	0.368433	537.776184
7028.185965	0.693823	0.368433	1176.787354
7028.186864	0.093970	0.368433	1261.266113
7028.187815	0.091124	0.368433	1347.925293
7028.188715	0.091176	0.368433	1429.983276
7028.189608	0.091099	0.368433	1511.334351
7028.190495	0.091128	0.368433	1592.164795
7028.191430	0.091219	0.368433	1677.454956
7028.192336	0.091088	0.368433	1759.980347
7028.193234	0.091150	0.368433	1841.833008
7028.194157	0.091208	0.368433	1926.018433
7028.195067	0.091205	0.368433	2009.014771
7029.262794	1.199996	0.356941	523.198425
7029.263690	0.732231	0.356941	1179.277832
7029.264653	0.093175	0.356941	1269.005371
7029.265559	0.091124	0.356941	1351.563965
7029.266455	0.091227	0.356941	1433.303223
7029.267380	0.091165	0.356941	1517.630371
7029.268284	0.091165	0.356941	1600.043091
7029.269188	0.091139	0.356941	1682.432617
7029.270076	0.091121	0.356941	1763.347656
7029.271009	0.091187	0.356941	1848.424683
7029.271916	0.091212	0.356941	1931.154053
7029.272818	0.091161	0.356941	2013.381226
7030.299091	1.223302	0.366959	549.262573
7030.299987	0.714741	0.366959	1189.670654
7030.300939	0.093435	0.366959	1278.620850
7030.301845	0.091117	0.366959	1361.172852
7030.302748	0.091161	0.366959	1443.491089
7030.303635	0.091161	0.366959	1524.350830
7030.304568	0.091212	0.366959	1609.451782
7030.305467	0.091190	0.366959	1691.431763
7030.306364	0.091139	0.366959	1773.183350
7030.307294	0.091073	0.366959	1857.881226
7030.308199	0.091201	0.366959	1940.418335
7030.309103	0.091168	0.366959	2022.834351
7031.376845	1.205259	0.363305	527.903381
7031.377806	0.624990	0.363305	1128.519043
7031.378721	0.092911	0.363305	1213.532959
7031.379620	0.091135	0.363305	1295.463501
7031.380552	0.091091	0.363305	1380.360596
7031.381455	0.091216	0.363305	1462.728516
7031.382351	0.091088	0.363305	1544.343018
7031.383233	0.091117	0.363305	1624.708130
7031.384169	0.091168	0.363305	1710.041626
7031.385080	0.091132	0.363305	1793.062500
7031.385982	0.091238	0.363305	1875.359009
7031.386869	0.091201	0.363305	1956.254395
7032.413650	1.212239	0.362439	539.446228
7032.414624	0.609430	0.362439	1133.031006
7032.415526	0.092648	0.362439	1216.599243
7032.416425	0.091150	0.362439	1298.542969
7032.417311	0.091058	0.362439	1379.220703
7032.418272	0.091161	0.362439	1466.826294
7032.419177	0.091102	0.362439	1549.273926
7032.420066	0.091117	0.362439	1630.276855
7032.420996	0.091219	0.362439	1715.110962
7032.421898	0.091165	0.362439	1797.341431
7032.422798	0.091003	0.362439	1879.244507
7032.423689	0.091113	0.362439	1960.426392
7033.490892	1.210528	0.362459	535.053589
7033.491871	0.589944	0.362459	1112.608643
7033.492771	0.092596	0.362459	1195.945435
7033.493661	0.091088	0.362459	1277.013428
7033.494595	0.091143	0.362459	1362.140625
7033.495505	0.091051	0.362459	1444.997070
7033.496421	0.091007	0.362459	1528.359619
7033.497308	0.091044	0.362459	1609.115356
7033.498245	0.091150	0.362459	1694.522827
7033.499149	0.091106	0.362459	1776.882568
7033.500069	0.091011	0.362459	1860.612427
7033.500954	0.091051	0.362459	1941.192627
7034.528736	1.236475	0.360091	560.122986
7034.529637	0.695405	0.360091	1186.683105
7034.530526	0.094054	0.360091	1270.297119
7034.531472	0.091014	0.360091	1356.396729
7034.532385	0.090978	0.360091	1439.459473
7034.533311	0.091058	0.360091	1523.779541
7034.534198	0.091099	0.360091	1604.583984
7034.535143	0.091040	0.360091	1690.616821
7034.536041	0.091044	0.360091	1772.374023
7034.536929	0.091025	0.360091	1853.204590
7034.537868	0.091088	0.360091	1938.735840
7034.538760	0.091132	0.360091	2020.025269
7035.604946	1.211133	0.365940	538.954102
7035.605853	0.707780	0.365940	1180.910156
7035.606795	0.094222	0.365940	1269.667725
7035.607704	0.091102	0.365940	1352.479736
7035.608599	0.091077	0.365940	1433.993408
7035.609485	0.091113	0.365940	1514.719727
7035.610436	0.091095	0.365940	1601.351074
7035.611322	0.091165	0.365940	1682.122803
7035.612222	0.091047	0.365940	1764.065430
7035.613110	0.091106	0.365940	1844.967529
7035.614065	0.091176	0.365940	1932.040161
7035.614969	0.091055	0.365940	2014.353638
7036.643324	1.229224	0.366246	599.861145
7036.644255	0.593558	0.366246	1152.463867
7036.645151	0.092600	0.366246	1235.433594
7036.646042	0.091018	0.366246	1316.530640
7036.646987	0.091143	0.366246	1402.660400
7036.647891	0.091040	0.366246	1484.960571
7036.648786	0.091113	0.366246	1566.506958
7036.649673	0.091084	0.366246	1647.298462
7036.650613	0.091223	0.366246	1733.048218
7036.651521	0.091110	0.366246	1815.775757
7036.652417	0.091106	0.366246	1897.406738
7036.653347	0.091025	0.366246	1982.060303
7037.718981	1.198832	0.380772	520.293030
7037.719937	0.695215	0.380772	1184.918457
7037.720851	0.092860	0.380772	1269.792603
7037.721754	0.091121	0.380772	1352.074463
7037.722644	0.091157	0.380772	1433.204346
7037.723597	0.091168	0.380772	1520.087646
7037.724501	0.091194	0.380772	1602.526855
7037.725391	0.091095	0.380772	1683.601318
7037.726276	0.091121	0.380772	1764.243042
7037.727222	0.091143	0.380772	1850.463867
7037.728125	0.091044	0.380772	1932.676270
7037.729020	0.091102	0.380772	2014.212769
7038.758860	1.199667	0.359547	524.254395
7038.759807	0.694687	0.359547	1182.123413
7038.760721	0.093036	0.359547	1267.158203
7038.761614	0.091113	0.359547	1348.522339
7038.762502	0.091238	0.359547	1429.541504
7038.763442	0.091095	0.359547	1515.170776
7038.764345	0.091110	0.359547	1597.442749
7038.765247	0.091113	0.359547	1679.626953
7038.766135	0.091161	0.359547	1760.577881
7038.767064	0.091201	0.359547	1845.303711
7038.767973	0.091069	0.359547	1928.085693
7038.768863	0.091095	0.359547	2009.160156
7039.833561	1.219874	0.364179	545.283813
7039.834484	0.684998	0.364179	1177.536621
7039.835376	0.093622	0.364179	1261.047241
7039.836296	0.091128	0.364179	1344.884888
7039.837214	0.091216	0.364179	1428.620972
7039.838120	0.091044	0.364179	1511.106567
7039.839016	0.091099	0.364179	1592.730957
7039.839947	0.091132	0.364179	1677.574463
7039.840850	0.091146	0.364179	1759.879517
7039.841748	0.091117	0.364179	1841.702515
7039.842631	0.091033	0.364179	1922.084351
7039.843572	0.091201	0.364179	2007.904663
7040.872390	1.202435	0.370391	523.059326
7040.873350	0.694713	0.370391	1189.983887
7040.874258	0.093058	0.370391	1274.480469
7040.875155	0.091029	0.370391	1356.133545
7040.876043	0.091139	0.370391	1437.064941
7040.876992	0.091241	0.370391	1523.653076
7040.877896	0.091124	0.370391	1606.029419
7040.878799	0.091113	0.370391	1688.304687
7040.879686	0.091128	0.370391	1769.135132
7040.880650	0.091219	0.370391	1857.070679
7040.881549	0.091201	0.370391	1939.060547
7040.882436	0.091230	0.370391	2019.981934
7041.949644	1.210602	0.360832	535.085999
7041.950538	0.706589	0.360832	1166.776855
7041.951505	0.092845	0.360832	1256.558350
7041.952429	0.091124	0.360832	1340.757202
7041.953324	0.091033	0.360832	1422.231445
7041.954262	0.091139	0.360832	1507.719727
7041.955163	0.091183	0.360832	1589.875488
7041.956084	0.091095	0.360832	1673.773926
7041.956972	0.091117	0.360832	1754.685791
7041.957925	0.091058	0.360832	1841.464355
7041.958825	0.091146	0.360832	1923.495972
7041.959746	0.091179	0.360832	2007.472046
7042.987480	1.219376	0.367813	542.622437
7042.988384	0.707600	0.367813	1182.292969
7042.989309	0.094288	0.367813	1269.509644
7042.990232	0.091194	0.367813	1353.681519
7042.991141	0.091058	0.367813	1436.453613
7042.992029	0.091047	0.367813	1517.303711
7042.992961	0.091179	0.367813	1602.282715
7042.993870	0.091190	0.367813	1685.174561
7042.994767	0.091110	0.367813	1766.899902
7042.995653	0.091128	0.367813	1847.639282
7042.996604	0.091216	0.367813	1934.385498
7042.997506	0.091102	0.367813	2016.559814
7044.063701	1.211268	0.360691	540.225647
7044.064599	0.722941	0.360691	1189.426392
7044.065489	0.094398	0.360691	1273.440796
7044.066434	0.091190	0.360691	1359.615479
7044.067345	0.091055	0.360691	1442.566284
7044.068240	0.091135	0.360691	1524.132324
7044.069145	0.091113	0.360691	1606.589844
7044.070059	0.091106	0.360691	1689.860718
7044.070966	0.091095	0.360691	1772.483887
7044.071856	0.091124	0.360691	1853.584473
7044.072793	0.091179	0.360691	1939.019409
7044.073691	0.091069	0.360691	2020.799683
7045.102540	1.209016	0.370907	533.176086
7045.103515	0.610232	0.370907	1128.152222
7045.104420	0.092893	0.370907	1212.220459
7045.105310	0.091007	0.370907	1293.216797
7045.106240	0.091176	0.370907	1378.010010
7045.107145	0.091113	0.370907	1460.467529
7045.108041	0.091073	0.370907	1542.068970
7045.108928	0.091124	0.370907	1622.896240
7045.109854	0.091080	0.370907	1707.236572
7045.110782	0.091165	0.370907	1791.837280
7045.111681	0.091113	0.370907	1873.748169
7045.112567	0.091091	0.370907	1954.455078
7046.176725	1.224075	0.357444	543.489197
7046.177628	0.711050	0.357444	1185.567139
7046.178516	0.094376	0.357444	1269.373169
7046.179458	0.091190	0.357444	1355.274292
7046.180364	0.091121	0.357444	1437.829590
7046.181263	0.091044	0.357444	1519.677856
7046.182147	0.091102	0.357444	1600.212280
7046.183080	0.091154	0.357444	1685.258545
7046.183980	0.091047	0.357444	1767.201172
7046.184869	0.091157	0.357444	1848.239990
7046.185801	0.091135	0.357444	1933.177979
7046.186714	0.091102	0.357444	2016.354370
7047.218640	1.224690	0.372159	546.211731
7047.219613	0.591555	0.372159	1121.794922
7047.220517	0.092798	0.372159	1205.684204
7047.221407	0.091000	0.372159	1286.673950
7047.222351	0.091139	0.372159	1372.709106
7047.223243	0.091198	0.372159	1454.057251
7047.224141	0.091073	0.372159	1535.840820
7047.225030	0.091080	0.372159	1616.811279
7047.225969	0.091124	0.372159	1702.376953
7047.226876	0.091190	0.372159	1785.086426
7047.227780	0.091150	0.372159	1867.485962
7047.228671	0.091099	0.372159	1948.654785
7048.289247	1.228521	0.359059	550.377197
7048.290177	0.656144	0.359059	1160.590942
7048.291075	0.093384	0.359059	1244.449585
7048.291958	0.091084	0.359059	1324.876709
7048.292900	0.091091	0.359059	1410.684692
7048.293798	0.091110	0.359059	1492.501099
7048.294691	0.091091	0.359059	1573.845581
7048.295612	0.091161	0.359059	1657.804810
7048.296515	0.091099	0.359059	1740.066895
7048.297418	0.091190	0.359059	1822.411621
7048.298311	0.091117	0.359059	1903.779053
7048.299270	0.091113	0.359059	1991.156738
7049.337308	1.216534	0.374504	542.574341
7049.338213	0.702111	0.374504	1177.984375
7049.339102	0.094113	0.374504	1261.650391
7049.340039	0.091121	0.374504	1347.030396
7049.340956	0.091113	0.374504	1430.581299
7049.341880	0.091044	0.374504	1514.705688
7049.342770	0.091058	0.374504	1595.747559
7049.343716	0.091084	0.374504	1681.912964
7049.344627	0.090985	0.374504	1764.800415
7049.345553	0.091029	0.374504	1849.093262
7049.346444	0.091084	0.374504	1930.249146
7049.347382	0.091091	0.374504	2015.692749
7050.400213	1.216491	0.362048	544.987732
7050.401110	0.720549	0.362048	1191.320557
7050.402063	0.094380	0.362048	1281.264648
7050.402969	0.091183	0.362048	1363.876343
7050.403864	0.091143	0.362048	1445.448975
7050.404752	0.091110	0.362048	1526.354370
7050.405685	0.091223	0.362048	1611.465576
7050.406588	0.091165	0.362048	1693.787109
7050.407490	0.091106	0.362048	1775.964722
7050.408379	0.091124	0.362048	1856.974243
7050.409331	0.091219	0.362048	1943.815186
7050.410238	0.091154	0.362048	2026.491455
7051.455497	1.282277	0.369303	643.702820
7051.456413	0.587021	0.369303	1181.414551
7051.457314	0.092545	0.369303	1264.797729
7051.458206	0.091179	0.369303	1346.129639
7051.459154	0.091219	0.369303	1432.605713
7051.460059	0.091062	0.369303	1515.016846
7051.460958	0.091113	0.369303	1596.927734
7051.461880	0.091154	0.369303	1680.971313
7051.462777	0.091161	0.369303	1762.742676
7051.463671	0.091047	0.369303	1844.139038
7051.464557	0.091132	0.369303	1924.881592
7051.465490	0.091132	0.369303	2009.907349
7052.509655	1.227751	0.365444	551.260376
7052.510562	0.695544	0.365444	1182.119141
7052.511449	0.094116	0.365444	1265.600220
7052.512407	0.091150	0.365444	1352.921875
7052.513313	0.091106	0.365444	1435.463867
7052.514203	0.091066	0.365444	1516.512329
7052.515141	0.091212	0.365444	1602.069336
7052.516038	0.091121	0.365444	1683.804565
7052.516935	0.091047	0.365444	1765.473999
7052.517826	0.091040	0.365444	1846.590698
7052.518754	0.091044	0.365444	1931.079224
7052.519660	0.091088	0.365444	2013.604614
7053.574600	1.205468	0.365170	530.405762
7053.575493	0.721699	0.365170	1174.883179
7053.576440	0.093263	0.365170	1263.203125
7053.577345	0.091121	0.365170	1345.667236
7053.578234	0.091113	0.365170	1426.666992
7053.579165	0.091165	0.365170	1511.541138
7053.580077	0.091033	0.365170	1594.562988
7053.580984	0.091080	0.365170	1677.172852
7053.581882	0.091208	0.365170	1759.078125
7053.582838	0.091124	0.365170	1846.192871
7053.583738	0.091062	0.365170	1928.148682
7053.584651	0.091055	0.365170	2011.281616
7054.621698	1.260696	0.370778	621.523010
7054.622628	0.580324	0.370778	1161.223877
7054.623529	0.092512	0.370778	1244.577393
7054.624418	0.091124	0.370778	1325.586914
7054.625361	0.091161	0.370778	1411.551636
7054.626264	0.091139	0.370778	1493.850098
7054.627152	0.091124	0.370778	1574.768433
7054.628060	0.091102	0.370778	1657.489258
7054.628990	0.091168	0.370778	1742.275635
7054.629899	0.091080	0.370778	1825.067627
7054.630797	0.091069	0.370778	1906.847900
7054.631726	0.091176	0.370778	1991.549927
7055.690196	1.217732	0.362105	539.455200
7055.691089	0.717100	0.362105	1179.825195
7055.692051	0.093153	0.362105	1269.438477
7055.692954	0.091110	0.362105	1351.710449
7055.693845	0.091113	0.362105	1432.892334
7055.694786	0.091132	0.362105	1518.647217
7055.695686	0.091216	0.362105	1600.741455
7055.696586	0.090974	0.362105	1682.618164
7055.697473	0.091124	0.362105	1763.445435
7055.698407	0.091208	0.362105	1848.634155
7055.699317	0.091029	0.362105	1931.470581
7055.700221	0.091055	0.362105	2013.784058
7056.735178	1.214908	0.378105	535.774658
7056.736165	0.575255	0.378105	1103.551514
7056.737074	0.092271	0.378105	1187.425415
7056.737968	0.091036	0.378105	1268.811890
7056.738901	0.091179	0.378105	1353.882080
7056.739801	0.091091	0.378105	1435.864258
7056.740726	0.091029	0.378105	1520.066162
7056.741612	0.091022	0.378105	1600.711426
7056.742549	0.091029	0.378105	1686.005615
7056.743452	0.091124	0.378105	1768.290771
7056.744372	0.091172	0.378105	1852.168945
7056.745261	0.091139	0.378105	1933.191406
7057.805290	1.245784	0.359152	574.306274
7057.806218	0.643623	0.359152	1171.588379
7057.807110	0.093409	0.359152	1254.909546
7057.808057	0.091069	0.359152	1341.152222
7057.808968	0.091132	0.359152	1424.173096
7057.809864	0.091124	0.359152	1505.820435
7057.810755	0.091190	0.359152	1587.070923
7057.811690	0.091212	0.359152	1672.354248
7057.812594	0.091128	0.359152	1754.733887
7057.813494	0.091183	0.359152	1836.798462
7057.814389	0.091161	0.359152	1918.387451
7057.815312	0.091245	0.359152	2002.606689
7058.850246	1.199260	0.382363	520.479004
7058.851210	0.683331	0.382363	1179.210327
7058.852123	0.092864	0.382363	1263.994995
7058.853027	0.091088	0.382363	1346.338257
7058.853919	0.091135	0.382363	1427.630859
7058.854852	0.091172	0.382363	1512.694214
7058.855755	0.091124	0.382363	1594.979370
7058.856659	0.091154	0.382363	1677.382202
7058.857542	0.091121	0.382363	1757.841675
7058.858488	0.091223	0.382363	1844.138794
7058.859393	0.091150	0.382363	1926.629395
7058.860283	0.091165	0.382363	2007.765869
7059.920354	1.247186	0.357154	579.941589
7059.921264	0.666215	0.357154	1186.196777
7059.922228	0.093054	0.357154	1275.901001
7059.923134	0.091165	0.357154	1358.496094
7059.924062	0.091121	0.357154	1443.056030
7059.924952	0.091051	0.357154	1524.091431
7059.925890	0.091135	0.357154	1609.576294
7059.926792	0.091080	0.357154	1691.730713
7059.927679	0.091154	0.357154	1772.583984
7059.928608	0.091216	0.357154	1857.323486
7059.929512	0.091143	0.357154	1939.716431
7059.930428	0.091106	0.357154	2023.169434
7060.965335	1.226038	0.384663	550.490906
7060.966244	0.702228	0.384663	1188.815918
7060.967130	0.094193	0.384663	1272.270996
7060.968069	0.091139	0.384663	1357.850464
7060.968980	0.091124	0.384663	1440.864624
7060.969875	0.091165	0.384663	1522.456909
7060.970787	0.091179	0.384663	1605.612305
7060.971704	0.091157	0.384663	1689.203491
7060.972610	0.091099	0.384663	1771.738892
7060.973505	0.091110	0.384663	1853.281982
7060.974426	0.091146	0.384663	1937.227661
7060.975330	0.091157	0.384663	2019.633789
7062.034427	1.269877	0.354064	619.699829
7062.035348	0.609855	0.354064	1181.375977
7062.036246	0.092970	0.354064	1264.863037
7062.037133	0.091077	0.354064	1345.648071
7062.038077	0.091219	0.354064	1431.759277
7062.038969	0.091073	0.354064	1512.996338
7062.039870	0.091011	0.354064	1594.997070
7062.040802	0.091124	0.354064	1679.924927
7062.041706	0.091165	0.354064	1762.337646
7062.042604	0.091143	0.354064	1844.183716
7062.043491	0.091084	0.354064	1924.975220
7062.044435	0.091198	0.354064	2011.065674
7063.080400	1.218373	0.385819	538.520813
7063.081367	0.607961	0.385819	1126.419434
7063.082281	0.092611	0.385819	1211.065918
7063.083178	0.091014	0.385819	1292.705811
7063.084115	0.091154	0.385819	1378.116699
7063.085023	0.091132	0.385819	1460.864136
7063.085925	0.090956	0.385819	1542.906250
7063.086813	0.091102	0.385819	1623.805054
7063.087763	0.091165	0.385819	1710.411377
7063.088667	0.091146	0.385819	1792.807617
7063.089564	0.091051	0.385819	1874.480347
7063.090449	0.091124	0.385819	1955.125366
7064.148478	1.277886	0.355555	618.496704
7064.149411	0.627770	0.355555	1204.205811
7064.150332	0.092637	0.355555	1289.524170
7064.151219	0.091124	0.355555	1370.351440
7064.152166	0.091088	0.355555	1456.611450
7064.153065	0.090992	0.355555	1538.413696
7064.153952	0.091113	0.355555	1619.231201
7064.154889	0.091172	0.355555	1704.659302
7064.155788	0.091099	0.355555	1786.557007
7064.156703	0.091165	0.355555	1869.972534
7064.157598	0.091069	0.355555	1951.479614
7064.158551	0.091168	0.355555	2038.362915
7065.195486	1.229238	0.386516	558.074158
7065.196382	0.698617	0.386516	1184.034912
7065.197327	0.093896	0.386516	1272.767090
7065.198237	0.091143	0.386516	1355.706787
7065.199141	0.091190	0.386516	1438.142700
7065.200030	0.091146	0.386516	1519.171753
7065.200983	0.091223	0.386516	1606.107422
7065.201884	0.091165	0.386516	1688.246704
7065.202780	0.091106	0.386516	1769.877686
7065.203693	0.091168	0.386516	1853.114258
7065.204606	0.091212	0.386516	1936.390991
7065.205504	0.091110	0.386516	2018.207397
7066.261966	1.211385	0.354020	537.855164
7066.262868	0.716503	0.354020	1184.140625
7066.263806	0.094318	0.354020	1272.610596
7066.264720	0.091176	0.354020	1355.945068
7066.265625	0.091113	0.354020	1438.402588
7066.266513	0.091047	0.354020	1519.252686
7066.267458	0.091234	0.354020	1605.468994
7066.268352	0.091179	0.354020	1686.983154
7066.269248	0.091073	0.354020	1768.584595
7066.270132	0.091227	0.354020	1849.229126
7066.271067	0.091168	0.354020	1934.471436
7066.271971	0.091073	0.354020	2016.801392
7067.310537	1.209049	0.387962	528.354431
7067.311479	0.697093	0.387962	1185.016479
7067.312417	0.092571	0.387962	1271.847900
7067.313339	0.091055	0.387962	1355.800293
7067.314227	0.091080	0.387962	1436.679565
7067.315194	0.091022	0.387962	1524.697510
7067.316096	0.090978	0.387962	1606.759521
7067.316987	0.091069	0.387962	1687.902344
7067.317927	0.091183	0.387962	1773.614258
7067.318849	0.091014	0.387962	1857.529541
7067.319764	0.091073	0.387962	1940.861328
7067.320649	0.091124	0.387962	2021.506348
